,X1,subject,alcoholic,CP5_F2_match,CP5_F2_nomatch,CP5_F2_obj,CP2_FT8_match,CP2_FT8_nomatch,CP2_FT8_obj,P3_PO2_match,P3_PO2_nomatch,P3_PO2_obj,P4_FT8_match,P4_FT8_nomatch,P4_FT8_obj,AF7_FT8_match,AF7_FT8_nomatch,AF7_FT8_obj,AF7_C1_match,AF7_C1_nomatch,AF7_C1_obj,F5_FC4_match,F5_FC4_nomatch,F5_FC4_obj,F5_CPZ_match,F5_CPZ_nomatch,F5_CPZ_obj,F5_nd_match,F5_nd_nomatch,F5_nd_obj,FC4_C1_match,FC4_C1_nomatch,FC4_C1_obj,F7_C1_match,F7_C1_nomatch,F7_C1_obj,FZ_nd_match,FZ_nd_nomatch,FZ_nd_obj,F3_PZ_match,F3_PZ_nomatch,F3_PZ_obj,F3_P8_match,F3_P8_nomatch,F3_P8_obj,F3_O2_match,F3_O2_nomatch,F3_O2_obj,CZ_P8_match,CZ_P8_nomatch,CZ_P8_obj,C3_P8_match,C3_P8_nomatch,C3_P8_obj,P300M_match,P300M_nomatch,P300M_obj,cond_mean_match,cond_mean_nomatch,cond_mean_obj,1_S1obj,2_S1obj,3_S1obj,4_S1obj,5_S1obj,6_S1obj,7_S1obj,8_S1obj,9_S1obj,10_S1obj,11_S1obj,12_S1obj,13_S1obj,14_S1obj,15_S1obj,16_S1obj,17_S1obj,18_S1obj,19_S1obj,20_S1obj,21_S1obj,22_S1obj,23_S1obj,24_S1obj,25_S1obj,26_S1obj,27_S1obj,28_S1obj,29_S1obj,30_S1obj,31_S1obj,32_S1obj,33_S1obj,34_S1obj,35_S1obj,36_S1obj,37_S1obj,38_S1obj,39_S1obj,40_S1obj,41_S1obj,42_S1obj,43_S1obj,44_S1obj,45_S1obj,46_S1obj,47_S1obj,48_S1obj,49_S1obj,50_S1obj,51_S1obj,52_S1obj,53_S1obj,54_S1obj,55_S1obj,56_S1obj,57_S1obj,58_S1obj,59_S1obj,60_S1obj,61_S1obj,62_S1obj,63_S1obj,64_S1obj,1_S2match,2_S2match,3_S2match,4_S2match,5_S2match,6_S2match,7_S2match,8_S2match,9_S2match,10_S2match,11_S2match,12_S2match,13_S2match,14_S2match,15_S2match,16_S2match,17_S2match,18_S2match,19_S2match,20_S2match,21_S2match,22_S2match,23_S2match,24_S2match,25_S2match,26_S2match,27_S2match,28_S2match,29_S2match,30_S2match,31_S2match,32_S2match,33_S2match,34_S2match,35_S2match,36_S2match,37_S2match,38_S2match,39_S2match,40_S2match,41_S2match,42_S2match,43_S2match,44_S2match,45_S2match,46_S2match,47_S2match,48_S2match,49_S2match,50_S2match,51_S2match,52_S2match,53_S2match,54_S2match,55_S2match,56_S2match,57_S2match,58_S2match,59_S2match,60_S2match,61_S2match,62_S2match,63_S2match,64_S2match,1_S2nomatch,2_S2nomatch,3_S2nomatch,4_S2nomatch,5_S2nomatch,6_S2nomatch,7_S2nomatch,8_S2nomatch,9_S2nomatch,10_S2nomatch,11_S2nomatch,12_S2nomatch,13_S2nomatch,14_S2nomatch,15_S2nomatch,16_S2nomatch,17_S2nomatch,18_S2nomatch,19_S2nomatch,20_S2nomatch,21_S2nomatch,22_S2nomatch,23_S2nomatch,24_S2nomatch,25_S2nomatch,26_S2nomatch,27_S2nomatch,28_S2nomatch,29_S2nomatch,30_S2nomatch,31_S2nomatch,32_S2nomatch,33_S2nomatch,34_S2nomatch,35_S2nomatch,36_S2nomatch,37_S2nomatch,38_S2nomatch,39_S2nomatch,40_S2nomatch,41_S2nomatch,42_S2nomatch,43_S2nomatch,44_S2nomatch,45_S2nomatch,46_S2nomatch,47_S2nomatch,48_S2nomatch,49_S2nomatch,50_S2nomatch,51_S2nomatch,52_S2nomatch,53_S2nomatch,54_S2nomatch,55_S2nomatch,56_S2nomatch,57_S2nomatch,58_S2nomatch,59_S2nomatch,60_S2nomatch,61_S2nomatch,62_S2nomatch,63_S2nomatch,64_S2nomatch,Alpha_match,Alpha_nomatch,Alpha_obj,Beta_match,Beta_nomatch,Beta_obj,Delta_match,Delta_nomatch,Delta_obj,Gamma_match,Gamma_nomatch,Gamma_obj,Theta_match,Theta_nomatch,Theta_obj
1,0,co2a0000364,TRUE,0.200029974,0.211414382,0.550771331,-0.435512082,-0.536245667,-0.404909536,-0.130692539,0.029983191,0.391106296,-0.308247533,-0.086077348,-0.348526702,-0.168176517,0.054572906,0.011416247,-0.217445649,-0.390029778,-0.434960387,0.370786476,0.026288664,0.333988335,-0.416309817,-0.154351414,-0.326372647,-0.354691554,-0.269820549,-0.410471438,0.2850903,0.128058352,-0.051709842,-0.01679988,-0.36847579,-0.217610963,-0.306759289,-0.043361749,-0.466811026,-0.265465128,-0.297739965,-0.269776479,-0.383573701,0.10262177,0.099763571,-0.485797857,-0.284644672,-0.102781005,0.43405213,0.139420502,0.295286727,0.511846428,0.440057482,0.453594183,-14.19127225,-9.451731602,9.24946526,-15.77811126,-14.10442839,5.108322949,-2.352646429,-1.799090584,-3.091471104,-2.301212662,-2.010285714,-0.028167857,0.490983442,-0.525002597,0.333223377,-1.239097078,-0.483424351,0.260063636,1.020777597,-0.461082792,0.415925649,-1.923003571,-0.863451623,0.907932143,9.24946526,-1.760701623,-1.713560065,-1.601759091,-1.345349026,-1.886254221,-1.351824675,-2.250920455,-1.702933117,-0.90748474,-0.662142208,-0.833426623,-0.318605519,-1.437687013,-0.830788636,-1.000221753,-3.123969481,-2.774711039,-2.885660065,-1.885497727,-1.412044156,-1.936358766,-3.333943831,-2.515035065,-2.649650649,-0.449867208,0.641872403,-1.503377597,-0.260989286,-2.532380519,-1.454309091,-4.498770455,-3.086117208,-1.65546039,-0.768531494,-4.419601948,-2.758336039,-0.780708442,0.748767208,-2.187438636,-1.670449675,-3.000707468,-2.265393182,-4.381146753,-1.454189286,-3.020927922,-2.216739261,-2.661551449,-4.708018482,-5.903686813,-1.670055445,-0.032547952,-0.46638012,-1.869901099,-2.444074426,-3.471303696,-4.147381618,-1.567036464,-1.538777223,-2.666521479,-3.004996503,-5.101766234,-5.148774226,-1.111981019,-14.17568531,-0.549304695,-0.856623377,-1.122418581,-2.555939061,-2.424079421,-4.411047952,-4.233404096,-6.372391109,-0.183193307,-0.605878621,-1.056422577,-2.725665834,-2.045128871,-4.413461039,0.572941558,-4.493584416,-5.277287712,-4.551569431,-4.15992957,-6.222687812,-0.295133367,-8.169858641,-8.096138362,-7.838918082,-3.830911089,-3.662435564,-4.775661339,-4.4980005,-6.004478521,-6.135278721,-8.421606394,-9.266698801,-5.794763736,-5.477096404,-8.352734266,-8.090392108,-5.17850999,-2.904632867,-5.77222977,-6.895144855,-7.165198302,-7.954048951,-8.48882967,-6.995931568,-4.314407592,0.816262832,1.222405071,-2.401826221,-1.264001237,1.133258503,-1.06468522,0.738150897,-2.523597403,0.382947434,-3.83517316,-1.482327767,-2.447987631,-0.99385838,-3.522797774,-2.212042053,-5.356380952,-3.652160173,-1.452085343,-9.451731602,0.617946815,1.943955473,-0.113159555,1.574267161,-1.629761905,0.330924552,-2.871611008,-1.99181509,-0.177882498,1.740226345,-1.415680891,1.100914657,-2.125324057,-0.553760049,1.284077304,-1.495113173,-1.022517007,-1.169564626,-3.901883735,-2.912573902,1.735795918,-8.91853556,-8.801575139,-8.774445887,-4.851969697,-3.97494867,-5.772581323,-4.653401979,-6.904406308,-6.678556586,-8.966721088,-9.089526283,-6.706207174,-6.400868275,-9.167916512,-9.056884354,-6.236301793,-3.325961039,-5.850787879,-4.35907483,-7.297058751,-6.658570192,-4.840562771,-5.28086209,-1.515977737,1045.005656,863.1892021,1094.534555,815.7617904,700.3812575,994.6882994,6533.895744,5814.133556,7709.801208,654.6921962,569.6140621,951.710876,2003.244436,1600.974238,2199.673799
2,1,co2a0000365,TRUE,0.521817012,0.272874675,0.457084883,-0.626006174,-0.469507234,-0.584002822,0.689150867,0.749709191,0.601833131,-0.546903248,-0.248023921,-0.618077332,0.447615618,0.435533759,0.487478244,-0.351181758,-0.543823292,-0.357850287,0.341578633,0.233268111,0.633680447,-0.410623004,-0.609027507,-0.362811622,-0.559236248,-0.373830253,-0.605347371,-0.13471277,-0.014200718,0.001111186,-0.378380017,-0.420486992,0.042893042,-0.243618555,-0.328720881,-0.42062759,-0.235226853,-0.402395523,-0.37131193,0.002112097,-0.036945811,-0.025125733,-0.218649387,-0.267971242,-0.059935356,0.283078003,-0.064891388,0.14729506,0.758491531,0.143720761,0.474611333,-10.04699115,-6.466113341,-1.532767294,-8.42847745,-8.517719815,-1.238217076,0.022651471,-0.985918367,1.172616486,-2.256410284,-0.383520806,0.415886827,-0.458301617,0.383061224,-0.986230586,-0.287823483,-1.555845746,0.450077922,0.103027034,0.16280864,-0.611979857,-0.540685396,-1.400381659,0.507799629,-1.532767294,-0.982627882,-1.106750066,0.210351444,-3.618616751,0.788502253,-2.43060986,-1.031853962,-3.37983912,-0.035621256,-0.892640604,0.362907766,-1.83490379,0.185842036,-1.819791413,-0.333655182,0.20051895,-1.166544394,-0.918769679,-0.725791943,-2.718558177,-0.544782401,-3.973345614,-4.156342168,-4.288195865,0.035684866,-0.557567718,-0.460997615,-0.930650676,-1.737975351,-1.673105486,-2.543294726,-3.011023059,-1.466538829,-1.077223165,-3.499206732,-3.668236152,-1.337090379,0.417790618,-1.251797509,-1.475317254,-1.343081898,-3.759211768,-1.640950172,0.649480254,0.187112377,-4.289479152,-3.786726589,-6.017045113,-6.898537936,-4.474831852,-0.477343131,0.380284347,-1.642244703,0.234815448,-3.709663021,-2.540461381,-0.332896104,0.610326042,-1.503691046,-0.895580998,-4.255420369,-3.109213944,0.921430622,-11.56551948,-5.244161996,-2.248991114,-2.924924129,-0.775570745,-4.110682843,-4.672138756,-5.062177717,-7.346212577,-1.309766917,-0.857745044,-1.937848941,-9.072038278,-3.679429938,-4.524449077,-0.96802324,-5.022631579,-5.438133288,-5.704089542,-3.204260424,-7.365568011,-2.575415584,-7.408796309,-8.199822283,-8.110163363,-0.766717703,-0.215704716,-1.979194122,-2.056245386,-6.860518797,-3.775351333,-7.140709501,-7.150303486,-3.110892003,-7.642772386,-6.822737526,-8.511221463,-2.816930964,-0.337408066,-5.281504443,-6.343899522,-6.568735475,-9.286404648,-8.901114149,-8.371339029,-4.915958305,-3.314255608,-2.371214876,-2.823441558,-2.771511216,-2.35672314,-0.499283943,0.457719599,-1.007628689,0.209712515,-2.48031523,-0.934002361,-0.114371901,0.373052538,-0.94553719,-0.158036009,-2.432600945,-1.193448052,0.089835301,-6.466113341,-0.911116883,-1.665171783,-2.080318182,-4.788255608,-2.242060213,-1.789719008,-7.481257969,-5.491188312,-1.493374852,-0.472252656,-1.517059622,0.660731995,-2.217498229,-0.915937426,-0.754970484,-5.952020661,-3.789421488,-3.312081464,-4.765419717,-2.640406139,-2.036506494,-5.168320543,-5.649330579,-5.537858914,-0.356927981,-4.253177096,-1.248507084,-1.699030697,-3.009280992,-2.618047226,-3.908971074,-4.215916765,-2.499294569,-7.511376033,-4.643766234,-5.339361865,-2.167782172,0.041340024,-5.048214286,-3.231357143,-4.539841204,-4.849818772,-5.032938607,-5.764135773,-5.893749115,1352.726812,1230.05417,2327.843105,619.3412291,599.0640374,1002.69579,5796.393521,4720.341694,6831.595791,352.4940868,303.5405028,481.7081249,2001.376195,1710.349151,2478.941497
3,2,co2a0000368,TRUE,0.281700744,0.562318006,0.126598736,-0.527074835,-0.493690781,-0.538776249,0.813730246,0.736933328,0.870076725,-0.472805208,-0.359966105,-0.310612404,0.638932372,0.47817225,0.526604789,-0.64632651,-0.64698152,-0.697896526,-0.05001986,0.137913517,0.26052241,-0.593201291,-0.439165334,-0.417510573,-0.485304268,-0.415542694,-0.452747591,-0.07409328,-0.153492113,-0.328817634,-0.367095539,-0.437983805,-0.385186046,-0.440992665,-0.392447387,-0.500811639,0.120786072,-0.178747702,-0.415712156,-0.004656246,0.009312378,-0.284044595,-0.183094466,-0.393336204,-0.435021093,0.367548101,0.058413421,-0.217390567,0.506783913,0.42927373,-0.068739017,-8.256139147,-9.132713049,1.054188145,-9.597187779,-12.98023568,-0.784673177,-2.321477522,-2.083354645,-2.378947386,-2.125378288,-1.129219447,-1.909578089,-1.487991342,-1.547795205,-1.564201798,-1.239355311,-1.410120213,-2.004989011,-1.88656044,-1.16481352,-1.590390942,-1.776934066,-1.440819181,-1.81753713,1.054188145,-1.539721279,-1.653109224,-1.132658009,-1.738771229,-1.377008991,-1.284695971,-1.370417249,-1.536300033,-2.108508159,-1.858102231,-0.916949051,-1.548775891,-1.241831835,-0.973912421,-1.630018648,-2.865502165,-2.927790543,-3.000714286,-0.771037629,-1.048307692,-2.002270063,-1.259579421,-2.316506494,-1.720592741,-1.708626707,-1.715799201,-1.85264036,-2.130230436,-1.570493173,-2.265992008,-2.131345321,-2.62498668,-1.508396603,-2.100750916,-1.708016983,-2.32803663,-0.64116983,-1.860006993,-0.955148851,-0.694477189,-1.1462331,-1.586804862,-3.542441558,0.486563437,-2.650367632,-6.016895176,-5.135221707,-7.676411874,-7.435508349,-3.447382189,-2.827686456,-1.775274583,-3.960944341,-3.132575139,-5.408050093,-3.597654917,-3.611180891,-2.898089981,-5.243628942,-2.419887755,-5.280789425,-4.119169759,-2.056960111,-8.256139147,-4.904013915,-3.874849722,-6.516099258,-4.598865492,-6.199635436,-5.128714286,-8.811995362,-7.245119666,-3.410170686,-2.414105751,-4.303122449,-2.71703154,-6.50890538,-4.144016698,-2.446853432,-8.280923006,-8.029029685,-7.840816327,-7.621666048,-5.640546382,-4.578143785,-4.943573284,-6.603319109,-5.915152134,-2.556510204,-3.201267161,-4.518674397,-3.918155844,-4.919972171,-3.812656772,-7.645068646,-6.502153061,-4.801353432,-4.796471243,-6.166243043,-5.704022263,-2.741951763,-3.081257885,-7.635333024,-4.478025046,-6.910743043,-4.924954545,-11.31678015,-10.29633859,-7.856273655,-3.355095455,-3.320075325,-4.146355844,-3.878486364,-2.149823377,-1.91815974,-1.858567532,-2.810748701,-2.667996753,-3.815525325,-2.794338961,-2.309408442,-2.237772078,-2.695916883,-3.192324026,-4.341896104,-4.032133117,-1.657822078,-9.587083117,-2.490153896,-2.418658442,-3.347266883,-2.905988312,-3.160169481,-2.839838312,-4.834614935,-4.496521429,-3.002612987,-2.574866234,-2.069978571,-2.703130519,-4.284662987,-3.354118831,-2.193297403,-4.102846753,-4.328240909,-3.835820779,-4.676146104,-3.71797013,-2.996042208,-6.687218831,-7.336703247,-6.543707143,-3.362387013,-3.405275974,-3.947446104,-4.123737013,-4.262128571,-5.609555844,-6.142757143,-6.523558442,-4.805482468,-5.858525974,-7.217434416,-8.047817532,-5.752106494,-3.037135714,-5.238938961,-4.868118182,-5.440853247,-4.729788312,-7.427803896,-6.740292857,-3.735113636,837.8025543,1094.332639,1884.850479,405.9262948,482.4730479,655.7843051,4301.165082,5373.522022,5494.225301,281.2778529,371.7416633,486.7078891,916.2922363,1487.448512,1671.991425
4,3,co2a0000369,TRUE,0.857279618,0.706349233,0.707259698,-0.848527008,-0.712812119,-0.759785794,0.619966816,0.652719856,0.80427409,-0.69179146,-0.613592209,-0.632684077,0.991763906,0.981736494,0.991996353,-0.752710689,-0.713432967,-0.681256332,0.338701844,0.330819812,0.596909609,-0.692686139,-0.672552187,-0.661477437,-0.797908402,-0.710084668,-0.733342282,-0.214897409,-0.465308285,-0.392701471,-0.552068385,-0.429733033,-0.658206557,-0.784812775,-0.690836197,-0.72741686,-0.408837064,-0.398869846,-0.648285487,-0.296230154,-0.381959849,-0.419266234,-0.26139421,-0.587051477,-0.608759967,0.451165981,-0.083992575,-0.160522154,0.643504287,0.382490323,0.172354739,-13.88022987,-11.53943247,-4.207362965,-6.66454987,-7.374258594,-4.025565665,1.093770488,1.455622033,1.379815495,1.539158307,1.04737931,0.761584192,0.622175549,1.302567398,1.509059785,1.329045902,1.694489476,1.820430587,2.058134796,2.181722571,2.395010748,2.145041648,2.553893641,1.27281348,-4.207362965,0.475174877,0.875226825,0.207513659,1.678670622,0.178642857,1.731306986,0.432641738,1.965894984,0.30463099,0.609451411,0.666235334,1.179974474,0.775570757,1.507792208,-0.010450515,1.581249888,2.267149127,2.118506941,0.337597179,0.265356919,0.558017465,3.694961263,3.206770712,3.145290864,3.900876399,3.933865204,3.624085759,3.895057546,3.293803403,3.958992835,2.792538737,3.526407747,4.676926108,4.238442902,3.691839006,3.78119167,4.637890058,3.389920958,0.844717421,1.066292432,1.427764666,2.420398791,1.797470443,-0.498095611,3.683328706,-5.931464845,-6.274611285,-7.828814599,-6.520421854,-6.07639588,-0.280160322,-0.395991491,-1.187757725,-1.289294671,-3.74179579,-2.518308554,0.978678459,1.037092253,-0.434495298,0.29787416,-2.518722347,-1.559997313,1.725789969,-13.38270175,-4.479628303,-5.212625616,-4.530826243,-6.062034483,-6.385278101,-6.270801612,-8.136244514,-8.841843708,-2.157554411,-2.476144648,-3.104430363,-3.350892969,-4.741789521,-5.061379758,-2.33041245,-7.934864756,-7.49421854,-7.445443798,-7.226035378,-7.313322436,-4.340944917,-4.949982087,-4.979994178,-5.254772056,0.639155396,1.132297806,-0.389025526,0.536665472,-2.085309001,-0.981813704,-5.280399015,-3.655427676,-1.45838558,-0.778246753,-4.947100761,-4.310159875,-0.766012091,2.025670399,-6.413274071,-5.439970891,-5.700914017,-4.102494402,-6.866196149,-12.09983072,-4.972157188,-4.550997502,-4.569982517,-6.169437063,-4.152234765,-4.75103996,-0.763601399,0.620275225,-1.313536963,0.577934565,-3.012145355,-0.78913986,1.024806693,1.952675325,-0.058023976,1.130192807,-2.003693806,-0.681105395,1.714475025,-10.62884216,-3.317315684,-3.506841159,-4.2604995,-3.464162837,-5.128853147,-3.652365135,-6.499807692,-6.04487962,-2.054526474,-1.088403097,-3.336412587,-1.241196304,-4.037562438,-2.915532967,-1.690245255,-6.57560989,-5.781837163,-5.354234765,-6.028842158,-5.473262737,-3.291034466,-3.09119031,-3.436291708,-3.617905594,1.66252048,1.984363137,0.390843656,1.306068432,-0.852114885,-0.3027003,-3.102119381,-2.302878122,0.057531968,-1.090639361,-2.697207293,-2.77061039,0.397124376,2.083626374,-5.442026474,-3.825772228,-5.106255744,-2.604744755,-6.666042957,-8.96222028,-3.075823177,2129.566106,2236.389018,4185.76881,738.4308768,647.445012,1060.396595,6715.774289,4793.176483,10814.5536,405.3211462,353.0588075,582.7353536,2484.474124,2592.628901,4272.324514
5,4,co2a0000370,TRUE,0.719605842,0.812764018,-0.049233313,-0.472911682,-0.489829008,-0.607273373,0.63283921,0.222898616,0.658522023,-0.400183052,-0.398420419,-0.553114042,0.382970718,0.265219008,0.381827392,-0.435091087,-0.282405587,-0.573122188,0.48978977,0.419691604,0.451528322,-0.355899627,-0.282276808,-0.536070192,-0.363979736,-0.425034303,-0.558759476,0.181719769,0.068515553,-0.125603975,-0.587344938,-0.433564185,-0.61782106,-0.079915032,-0.334632221,-0.5444144,-0.586788966,-0.646367128,-0.744044738,-0.243754619,-0.010312867,-0.799760965,-0.368631052,-0.138329783,-0.788923026,-0.108541173,-0.045552444,0.343789066,0.202135986,0.360704731,-0.124192268,-13.09902284,-7.225065368,-0.833637024,-6.802523976,-4.256625,0.271039989,0.790427911,0.882726612,1.852845256,2.212501651,0.690526965,0.398243451,-0.028879815,0.39801783,-0.089482721,-0.087054369,-0.301431213,0.977524323,0.221374422,0.777730795,-0.277040722,0.003572309,-0.710467532,0.705640106,-0.833637024,-0.23825996,-0.205682589,-0.059309927,0.080415584,-0.154367378,0.308434295,0.668683249,0.679124807,-0.489464451,-0.501873212,-0.257003082,-0.437295179,-0.340797711,-0.288097953,-0.82874026,2.152563724,2.64514836,2.185569227,-0.18420295,-0.41527691,-0.549506053,-2.499168611,-4.321050187,-3.579975127,0.784667621,-0.197564825,0.633077042,-1.064059432,-0.160490425,-1.90920405,-1.813775699,-2.67674158,0.068692274,-2.916963901,-1.987159586,-4.522583975,-0.748454325,0.711498789,-0.853540172,-0.92163042,-1.210801673,-1.344545234,3.714631741,-0.096477218,-2.494439797,-1.856842764,-2.153493506,-3.81571475,-5.30917115,-2.153342301,-0.066906772,-0.655045455,-0.351379406,-1.780235622,-2.467677644,-4.773890538,1.003757421,-0.868546382,0.28233859,-1.719266234,-1.950625696,-4.823058442,0.571004174,-12.96807839,-1.326859926,-1.542970315,-1.232323284,-2.35934462,-1.223051484,-3.139085343,-5.155935529,-7.036768089,-1.385064007,-1.1108859,-1.608096011,-1.783011132,-3.161752783,-5.002089981,-1.120956865,-3.996801948,-4.0492282,-4.146207792,-5.968903525,-8.723954545,-1.388461503,-5.302449443,-7.913948516,-6.390089054,0.508445733,-0.76745269,-0.095741651,-2.468112709,-2.212062616,-4.885430891,-5.233470315,-8.993015306,-1.219260204,-3.867939239,-4.52187013,-8.820199443,-1.557290816,0.571745362,-6.027599722,-9.369761132,-5.121306586,-9.055071892,-8.378283859,-11.43273609,-5.339667904,1.448670846,0.410444693,0.940120466,-0.981915808,0.809457232,1.126386923,-0.709190775,1.677640842,-1.377856247,0.589717868,-2.651427228,1.388970891,0.138114196,1.472960591,-1.011193014,0.083489476,-2.707992387,0.487218092,-7.217838334,1.260504702,-0.089670846,1.982836991,-0.117446037,1.859641738,-1.188417376,0.017257949,-2.864749216,0.685394984,-0.898236005,1.373879086,-1.358921182,0.570768921,-2.879669951,-0.319355128,0.884553963,-0.270184057,0.698712047,-1.510472011,-4.435575459,0.348352888,-4.669939095,-6.397437528,-5.661304523,0.164294223,-0.628083744,0.560104792,-1.497669503,-0.940971787,-3.272162562,-2.304526646,-5.923875056,-1.424456337,-3.459510076,-3.64065562,-7.128796686,-2.022648007,-0.026845947,-1.675834751,-4.635870578,-1.881213614,-5.832690551,-2.453858934,-4.676269145,-4.711679355,1194.364915,1149.739847,2887.839095,569.2711808,551.3282927,848.511123,3845.290468,3808.705298,5171.851411,315.7825263,331.5401385,465.6906902,1390.594143,1399.789222,1915.670651
6,5,co2a0000371,TRUE,0.283799044,0.409034049,0.46398064,-0.382757608,-0.445538117,-0.590627796,0.364322883,0.298331712,0.391598747,-0.088963752,0.169519442,-0.848211048,0.871393741,0.831340911,0.741534475,-0.693778985,-0.615581018,-0.531392578,0.672558286,0.710056611,0.439918,0.292487506,0.14614705,-0.483145524,-0.296790722,-0.124826895,-0.812106979,-0.387379286,0.004414602,-0.4234217,-0.547926844,-0.527009261,-0.497667747,-0.3172369,-0.083241811,-0.720032487,-0.397012673,-0.331847198,-0.492524121,-0.307848103,-0.028041243,-0.086921081,-0.275543198,0.20636,-0.473767506,0.194992112,0.196525107,-0.212897053,0.215489518,0.435166658,0.104337549,-9.633758961,-8.941709184,7.915781916,-6.475598906,-7.294089007,5.443342129,2.727342073,2.294329821,4.115232786,3.721420975,2.121001225,-0.006251899,0.401630973,0.967779466,1.354885812,2.068959324,2.703541534,-0.41458172,0.0215506,0.233997795,1.2446469,1.138757657,1.740036511,-0.746842196,7.915781916,1.355864004,1.357059054,2.173248959,1.86922421,3.19371159,2.961480519,4.234414849,4.186059054,0.425577064,0.693512864,1.510187699,1.620466552,2.678888753,3.078539084,0.022707915,0.729484195,3.661639794,3.63067557,4.047732664,3.891230336,1.169767214,0.746079882,1.171796864,0.199957118,-1.217500123,-1.292052683,-0.471909336,0.38577236,0.377530752,1.09848444,1.370855428,1.574746386,-0.447664788,0.014981377,0.816459691,0.608205097,-0.477885567,-0.926131585,3.542074737,3.312609654,2.552639059,2.206433962,6.442101446,5.679519481,3.824334722,-1.858285714,-1.645712208,-3.377705974,-3.703831169,-1.963851948,-0.240538182,-0.441382857,-0.991243117,-1.567643117,-2.580204156,-3.636432727,-1.745094545,-1.566141299,-2.374501299,-3.565325195,-3.795668052,-5.397695584,-1.555126753,-9.633758961,-0.847584416,-0.997201558,-1.150003636,-1.381738701,-2.025136104,-2.551344935,-3.37470026,-4.249400519,-0.171918442,-0.68700987,-1.143075325,-1.502738701,-2.102515325,-3.065561039,0.063971948,-0.529117403,-3.438264935,-3.232286234,-3.541694545,-4.93327013,-0.837455584,-9.040319481,-10.41477974,-9.759702857,-4.59003013,-3.745460779,-4.416057662,-5.865256104,-5.575508571,-6.898168831,-7.145825974,-9.229357922,-6.458365195,-7.764031688,-8.697540779,-10.43226649,-6.697781299,-4.386391169,-4.205393247,-5.735604675,-5.221772468,-7.523865974,-6.530514286,-7.822246234,-3.218657143,-2.316132653,-1.365608998,-4.019954082,-2.588024583,-2.224648887,-1.391266234,0.335810761,-2.651366419,-0.184643785,-4.101671614,-3.069658627,-2.175302412,-1.036955937,-2.425184601,-2.641050093,-4.588230519,-4.366158627,-1.873464286,-8.941709184,-2.025550093,-0.655442022,-2.867493043,-0.507326994,-3.839519944,-1.686529221,-4.820282468,-3.91834462,-1.386111781,0.021182746,-3.420082096,-0.170581633,-3.959115028,-2.320972171,-0.4121141,-0.684403061,-2.178045455,-2.614758813,-5.468035714,-4.93702551,-1.370352041,-8.910474026,-9.986169295,-10.16074258,-4.74303757,-4.211710111,-3.93870872,-4.961260668,-5.691512523,-5.988626623,-7.453173469,-8.603507885,-6.053781076,-7.081373377,-8.827386827,-9.78486039,-6.994425788,-4.688371985,-5.880269944,-5.878602968,-6.129814935,-7.146789889,-4.025318646,-8.516148887,-3.124074212,781.5152155,898.8464722,1431.558087,889.5378752,891.592023,1417.690085,3698.889512,3739.2962,4432.738063,727.329611,841.6796036,1102.338992,1208.857237,1227.254548,1883.71368
7,6,co2a0000372,TRUE,0.689126899,0.798493418,0.650622478,-0.781201102,-0.361923547,-0.341136906,0.463831868,0.527162626,0.800432343,-0.687178494,-0.167501688,-0.016380317,0.74770893,0.659863624,0.590138957,-0.592420296,-0.469847416,-0.534444515,0.672636591,0.65146506,0.560663431,-0.72700446,-0.169378813,-0.163765535,-0.745985563,-0.183266449,-0.201807357,0.609160149,0.159767607,0.007832432,-0.569182475,-0.622126565,-0.644096052,-0.607069751,-0.125755325,-0.07408315,-0.478084269,0.029653942,-0.360102481,-0.343663432,0.151089029,0.057913133,-0.289656038,0.094603667,-0.24443255,0.38425994,0.055906251,-0.563854228,0.030310968,0.522848344,0.247439867,-8.550939095,-3.581526198,1.157363864,-5.014419181,-2.431031519,3.118892681,3.646049897,3.662566644,3.617749601,4.272879471,3.303710412,0.398319891,0.235019822,0.438128731,0.379587605,0.521370472,0.150293689,0.296570745,-0.02617635,0.437256095,-0.055470267,0.232817498,-0.426884028,0.025619048,1.157363864,2.276961267,2.390389155,2.234497835,2.602060378,2.790388243,2.631638186,2.388393256,3.597446115,1.066881522,0.982357029,0.986046024,1.302534062,1.078836865,1.647451811,0.920383003,4.299736614,4.523252677,4.679652996,0.853622465,0.752092048,2.241078606,0.090949419,-1.41608339,-0.813804967,0.373681932,-0.263575074,0.531883345,-0.342612668,0.274174983,-1.093795398,0.027563682,-1.781937116,0.45615835,-0.769606061,0.156675097,-2.822141946,0.216686717,0.546235361,0.232349966,-0.248389838,-0.163274094,-0.984599909,6.868127364,3.211911141,0.062652768,-1.351058665,-2.232316167,-2.780489476,-1.58094223,-1.734777877,0.776610837,-0.746464398,0.558332288,-1.265986117,-0.339883565,-1.925018809,1.30236901,-2.33E-05,1.165356023,-0.994482759,0.280454545,-1.959601433,0.895064039,-8.550939095,-0.875533811,-0.873856247,-0.746462159,-0.985776982,-0.854988804,-2.399390058,-3.105808777,-3.004585759,-0.370301836,-0.739461711,0.04361039,-0.961065383,-0.822938648,-1.353325571,-0.614755486,-4.015258845,-3.152048813,-3.242295119,-2.082720555,-2.770404837,-0.928934169,-2.168778325,-3.958078818,-2.825528885,0.708082848,-0.336661442,1.028253023,-0.871023735,0.272243618,-2.542281236,-1.122662338,-3.945823556,0.051482759,-1.667951187,-1.459390058,-5.416296014,0.290778773,1.316003135,-1.627658755,-3.016891178,-1.558437528,-3.376650694,-4.48441648,-5.890227497,-2.195765786,-1.552279445,0.134502911,-2.150532915,1.376891178,-0.622391402,-0.685326467,0.600657412,-1.148282579,0.771288401,-1.587483654,0.600464845,-0.113335423,0.814298701,-0.590171966,0.917474698,-0.662919391,0.260784595,0.242631885,-3.581526198,-1.066211375,-0.223520376,-1.092187192,0.55746798,-1.895218092,0.555431258,-3.15327004,0.32402687,-1.185503807,0.139588894,-1.657628751,0.821999104,-2.143536946,0.741752799,-0.606343036,-1.494606359,0.034294223,-0.53633408,-3.103661442,0.321910882,-0.639369458,-1.074582624,-1.949646664,-1.277022391,0.755009852,0.818172862,0.339912226,0.485831169,-0.511913569,-0.60717107,-1.30902687,-1.769657859,0.433260188,0.104785938,-0.713912226,-2.900488133,0.227223018,0.725331841,-2.417889834,-0.051442454,-1.845254814,-0.853607703,-0.728702642,-3.379557098,-1.098000896,932.5261569,881.0570125,1473.039,483.1438048,510.249919,726.7944999,4331.562802,3740.693364,5642.829645,317.0439327,288.0287648,424.3581391,1537.07805,1547.879786,1898.015867
8,7,co2a0000375,TRUE,0.669188032,0.617008338,0.770184003,-0.509460334,-0.297450473,-0.749424192,0.477117003,0.329326568,0.709126573,-0.377000815,-0.209849191,-0.59828699,0.805770042,0.629064996,0.792190875,-0.601002035,-0.082477543,-0.733804663,0.453560556,0.030261143,0.520435452,-0.187666024,-0.303210151,-0.571552204,-0.345388151,-0.275346477,-0.645791125,0.028465175,-0.406568593,-0.005546256,-0.444978917,0.126267275,-0.698357112,-0.543251908,-0.292600219,-0.483150491,-0.064629653,-0.176964521,-0.324216061,-0.12212382,-0.262636494,-0.037802184,-0.14160641,-0.23287305,-0.16635855,-0.246120565,-0.04444412,0.253834015,0.402036789,0.505814382,0.708392353,-7.520373377,-4.426470484,-1.505418914,-9.106502279,-9.560067649,-3.400278345,-2.818623044,-3.773275391,-3.27635298,-2.226449883,-2.923720613,0.645934066,0.79080686,0.673934732,0.287485847,0.461264069,-1.069777223,1.465020646,1.408262404,1.384478854,0.808291708,1.109950383,-0.220504163,1.305789544,-1.505418914,-2.248829171,-1.70517316,-2.025082584,-3.845842158,-1.919521812,-3.159362637,-1.484891442,-6.432450216,-0.917264735,-0.770516817,-0.84888678,-1.654115218,-0.906312687,-1.465289377,-0.859106893,-5.226110889,-5.689215451,-5.279077589,-0.007333999,-2.497360306,-1.953235098,-0.127088911,-0.602431235,-0.243016983,1.723707293,2.09025974,1.291827839,1.12212654,0.963614386,0.094760906,0.254005328,-0.746115218,0.867013986,1.931468531,-0.023136863,-0.744324009,1.004454545,1.661222444,0.57590343,-2.004319014,0.155934399,-1.35137296,-7.233575092,-0.972885115,-0.162230769,-4.387766775,-3.743237013,-13.03159632,-9.476043831,-4.168976732,0.044082792,0.153741342,-0.826397727,-0.880946429,-3.463533009,-2.109334416,0.846184524,0.974032468,0.043378788,-0.602167749,-2.642723485,-2.481949675,0.994031926,-7.520373377,-2.489644481,-2.394018398,-2.946900433,-3.866646645,-7.299121753,-4.606751623,-9.238113095,-10.97172403,-1.136732684,-1.688413961,-2.422592532,-2.123107143,-3.476477814,-4.764744589,-1.120285173,-5.082426407,-5.044382576,-5.030909091,-6.224642857,-4.573822511,-1.98246645,-6.374768398,-6.643733766,-6.326516775,0.658738636,-1.138703463,-0.202800325,-1.213298701,-2.212662338,-3.499994589,-5.067981602,-6.043938853,-2.840064394,-4.356367965,-5.428842532,-7.075360931,-2.228004329,0.490477814,-5.455563853,-4.558004329,-4.813270563,-5.403084416,-5.887320887,-8.725955087,-6.385495671,-3.529719599,-2.611701889,-3.960677096,1.28351889,-2.885765643,-0.265107438,1.258723731,-0.633464581,0.977792798,-2.156123967,-0.818304014,0.685294569,1.539104486,0.216118654,0.11662928,-1.250929162,-0.892255608,1.016211924,-4.426470484,-2.529836482,-1.578828217,-2.920914404,0.263788076,-3.186645218,-1.994639315,-5.132547226,0.355688312,-1.718700118,0.288305785,-1.916436836,-0.364367178,-2.886536009,-1.867914994,-1.237893152,-4.397527745,-4.444671783,-4.152152893,-3.556034829,-3.963270366,-2.303116293,-3.663958678,-4.028788666,-3.651791027,1.096835891,0.397642857,0.399953365,0.01013046,-0.623108619,-1.743940378,-2.463938607,-4.454597403,-0.600992916,-4.223,-2.465515939,-4.632412633,-0.786749115,1.005855372,-4.976822904,-3.93716588,-2.776070248,-4.126772727,-6.819180638,-5.673139906,-3.689239079,962.5708507,1034.171959,1458.82895,663.7746413,696.0562594,971.5802024,6295.649777,9565.28876,7932.873933,391.5351851,418.8896344,545.2480568,1543.262013,1673.426425,2553.567733
9,8,co2a0000377,TRUE,0.684078615,0.915357739,0.819735712,-0.259845226,-0.065555447,-0.777310055,0.793201769,0.847398601,0.289063879,-0.096047135,-0.00708062,-0.461828809,0.673354399,0.641908363,0.751809502,-0.683797158,-0.357214231,-0.710277943,0.511414176,0.555176691,0.696053836,-0.112709563,0.078184885,-0.418560276,-0.158289019,-0.185949401,-0.655474608,-0.408416353,-0.499935984,-0.249872942,-0.087164028,-0.076025872,-0.633334655,-0.456138257,-0.397895965,-0.538271586,-0.039345839,0.182441255,-0.521516289,0.252329114,0.462037957,0.065822959,-0.186849729,0.081116983,-0.10607111,-0.169687814,-0.691256069,0.024722623,-0.004972625,0.716288802,0.527222571,-6.135495065,-1.48010026,2.703858442,-2.445700469,0.522158594,3.184202031,0.739212208,0.544029351,1.347226753,1.445402857,0.638100779,0.246608312,0.016443377,0.27400026,0.579052468,0.530387532,1.190386753,0.567247792,0.643125195,0.393891169,1.080034286,0.597024935,1.168508312,0.682399481,2.703858442,0.690488312,0.364704156,0.822595584,0.628892208,1.087442597,0.883768571,1.13752026,1.583683896,0.301959221,-0.12130026,0.568854286,0.354493247,0.805873766,1.046512727,-0.104682338,1.27297013,1.170244416,1.723932987,1.118752208,1.900938701,0.509442338,2.255103636,1.912779481,2.06844,1.60818026,1.730392727,1.210794286,1.26114026,1.287290909,1.103636623,0.842377403,0.973615325,2.195273766,2.600321818,2.275119221,0.877769351,2.179824675,1.553460779,0.711087273,1.498787532,0.863114286,1.202529091,0.82264,0.752671429,2.293721039,0.435608831,0.708297662,-1.673508571,-2.372788052,0.572535584,0.040464416,-0.225317403,-0.695936623,-0.72624,-1.860342338,-1.159696623,-0.128829091,-0.112583377,-0.940279481,-0.641403117,-2.063999481,-1.304061299,0.35681039,-6.135495065,0.878567273,0.802737662,0.587767792,0.69154026,-0.941987013,0.026492987,-3.857297662,-1.522458701,0.519512208,0.120382857,0.099919481,0.099113766,-1.321393766,-0.443273247,0.335801558,-0.449119481,-0.619631169,-1.113888831,-2.939232208,-1.279649351,0.920919481,-3.379771429,-2.996582857,-2.773213506,-0.151368312,-0.565902857,-0.918771948,-1.147180779,-1.853002597,-2.06374026,-4.073324675,-3.350617143,-1.245868052,-1.150316883,-3.454331429,-4.415081558,-1.211035844,-0.039394286,-4.173059221,-2.262479481,-3.789901299,-2.894608312,-3.495382338,-4.564104416,-3.379156364,1.63418961,2.378742857,0.765891429,2.571715844,1.87486961,-0.920292987,1.158936623,-1.616683636,2.401912208,-1.998422857,2.556168831,-0.516643636,1.515369351,-1.525790649,2.255560519,-1.936197403,1.929755844,0.731530909,-1.48010026,1.33577039,1.973319481,0.915270649,2.604058701,-0.051938701,2.756734545,-1.856846753,2.103413506,-0.243610909,1.225171429,-0.370986494,2.344735065,-1.068619221,2.673395844,0.284839481,1.879778701,2.39813974,2.614963636,-1.978686234,1.796153247,1.457393766,-1.321861299,-0.845429091,-0.712869091,0.574250909,1.117873247,-0.329640519,1.173985974,-0.855891948,0.753700779,-2.23762961,-0.047600519,0.40668987,1.67862961,-0.701502857,-1.130645714,0.424672208,0.894801558,-3.220527273,1.710986494,-2.901083117,1.182025974,0.885249351,-3.323213506,-1.322498182,869.4531234,881.0292603,1355.772414,677.4445876,592.84638,999.967197,3921.817543,3830.341868,6040.179364,611.6154941,509.6754459,897.4202166,1382.852761,1521.187795,1881.111072
10,9,co2a0000378,TRUE,0.553834604,0.595693307,0.593241912,-0.551622826,-0.728591903,-0.775150838,0.756693907,0.819180246,0.791194146,-0.418728353,-0.524333746,-0.231279993,0.612632867,0.81732532,0.262583064,-0.897864141,-0.804071458,-0.649157981,0.462490188,0.260407786,0.638789807,-0.444880993,-0.462734471,-0.266636041,-0.44954619,-0.674407153,-0.660326618,-0.547141575,-0.511453928,-0.366898649,-0.886425422,-0.773982582,-0.812799541,-0.560123455,-0.731798847,-0.745243423,-0.528950643,-0.753564262,-0.658618753,-0.400878464,-0.481998191,-0.273351147,-0.5830406,-0.775949552,-0.426047369,-0.261077661,0.174788415,-0.000684012,0.400994108,-0.119742823,0.22371878,-14.48347234,-7.934878639,3.434450603,-11.70146832,-9.850201509,2.506340751,0.379091141,0.15292115,1.006013219,0.612840213,0.370189471,-0.000115492,-0.636263219,3.595207792,-0.571156076,2.517554963,0.151807978,1.784588358,0.753618738,3.710402134,1.199901438,4.444616419,1.448095315,0.700337199,3.434450603,0.108116883,-0.704795455,0.106363868,-0.269883117,-0.192547542,-1.059979128,0.931463126,0.452809601,-0.731231215,-1.408106679,0.164713358,-1.202701067,1.103448052,-0.801379174,-1.112201994,1.90954731,1.561105751,0.816395408,1.866271104,-0.142173701,-0.353319109,2.25288961,2.802511596,0.701929963,3.056028989,2.209280844,3.759828386,3.103197356,4.775996753,3.577264842,6.165190863,3.62187616,2.167050788,2.950888219,2.247664889,5.13082398,1.232123377,1.795164193,2.255993506,0.631297774,4.671142857,1.547413497,2.846770872,0.168798933,2.344934833,-3.782373256,-3.556500722,-3.416487253,-4.27521645,-2.963548822,-2.70616354,-1.231655123,-1.437335257,-0.272531506,-2.857346801,-1.966468013,-0.826165464,0.25384127,0.153124579,0.404741703,-1.065689755,-1.181624339,-0.038324194,-14.48347234,-3.528517557,-3.236419432,-1.832300625,-1.458835979,-3.079944685,-1.332830688,-6.574420394,-4.09296152,-2.699884079,-2.105452621,-3.399768158,-1.450604137,-3.997921597,-3.034839346,-2.268770563,-3.44450457,-2.654472823,-3.782443001,-6.463403078,-6.813652718,-2.72012025,-1.087007215,-1.832388648,-4.404444444,1.434979798,1.181397787,0.29790861,0.930228475,0.128208273,-0.953616162,-2.097573834,-2.704277056,-0.59920683,-1.507955748,-1.950915825,-1.327834055,-1.549507456,0.336807119,-3.627896585,-6.08726936,-2.716376623,-4.712377585,-1.723116883,-7.270858586,-0.880000962,2.049473802,0.772386476,1.115360054,0.673005822,1.007988356,1.200373936,-1.08970712,3.295610837,-0.453378415,2.449179131,-0.158963726,1.505469772,0.655708912,3.20448455,1.758869682,3.745892521,1.879849082,0.491463502,-7.934878639,1.036994626,0.255757725,2.977478728,0.763716077,2.448935065,2.423981639,0.3910206,-0.354668159,0.510247201,-0.85030721,1.956157188,-0.368660546,2.290541872,-0.338251232,-0.237410658,0.442555307,0.582419615,0.637780116,-0.360850873,-2.22723511,0.900000448,-1.921054635,-0.313756829,-2.768351097,1.708861621,1.743353784,2.284551276,2.650093596,3.083365428,2.916988804,3.253875952,1.855948052,-0.250885356,1.019631438,0.404888939,2.126843708,-0.546639051,0.857776534,1.219854904,-1.804729512,2.185523511,0.355687864,-0.726161666,-2.461055979,-1.895740708,1123.816096,1167.822283,1566.690451,568.1745526,545.6498696,735.8024368,6018.364894,5518.407179,6019.05082,392.9900493,419.887332,520.2987844,1797.947377,2344.360709,2347.051274
11,10,co2a0000379,TRUE,0.691228446,0.712189218,0.704721425,-0.633595284,-0.688213775,-0.536218882,0.543935726,0.610917017,0.622127118,-0.259493922,-0.431853938,-0.161398652,0.237085452,0.061557402,0.604520807,-0.742518794,-0.491418742,-0.602456902,0.260104505,0.178025098,0.322059507,-0.489022352,-0.373735981,-0.233975095,-0.545853359,-0.53627961,-0.175605582,-0.436076674,-0.218142957,-0.134360748,-0.610915178,-0.65537124,-0.633361849,-0.659871647,-0.649842771,-0.393998629,-0.322426401,-0.443710595,-0.417042038,-0.158987307,-0.228286738,-0.086951087,-0.274149606,-0.228270278,-0.271011094,-0.100573257,-0.377380016,0.089606945,0.081228107,-0.070867054,0.494368282,-2.175325637,1.609867244,-1.698775132,-2.112547888,-0.299811343,-1.23406127,-4.29617797,-4.100626022,-5.963970659,-4.493436027,-4.266172679,0.354696248,0.632019481,0.748192881,0.868128427,-1.005534151,-0.481011063,1.425361712,1.937603415,1.587304473,2.050579365,0.344571188,0.680605099,1.197898749,-1.698775132,-2.937623858,-3.090029101,-2.776930976,-2.611008899,-2.494248437,-1.668040885,-4.378758297,-1.00857215,-1.428097403,-1.472942039,-1.239951178,-1.050265753,-2.104327802,-1.928429052,-1.755468254,-6.682878788,-5.784083454,-6.179565897,-3.467962482,-2.895690717,-3.239582732,-2.26579822,-3.106712602,-3.554943482,1.648411977,1.487794613,1.899214286,1.988801106,1.221918951,0.834479317,-0.2229329,-1.966275613,-0.641234007,-0.609291246,-0.77043771,-1.881935305,-0.550758057,-1.769877826,-2.551497595,-2.122848485,-1.665041366,-1.554719817,-8.367117845,-6.632477152,-2.237855219,-4.98915873,-6.073164021,-9.144953824,-9.879536797,-5.846797499,0.86076912,0.156386243,1.786840789,-0.083763829,0.298029341,-1.487321789,3.122106782,1.875190476,3.984371813,1.75333189,2.788726311,0.447627225,1.829225108,-2.175325637,-3.040651756,-4.208621453,-2.217645984,-4.166442039,-2.092676768,-4.83020683,-4.745417027,-5.884405002,-1.484417508,-2.12966811,-0.381655123,-2.318904762,-0.842683983,-3.300985089,-2.361739779,-10.29393458,-11.31351034,-11.45226984,-3.037406445,-3.612837903,-3.882822511,-2.193611352,-3.808252044,-3.757612795,2.954550746,1.258813372,4.303663781,1.397053391,3.751132275,-0.019429052,1.890522367,-3.056186147,-0.151694084,-1.459467532,0.943569505,-3.40012025,-0.704476671,2.890531025,-1.12394228,-2.478711881,0.768474747,-1.55613468,-14.92262049,-7.001621453,-2.243977393,-2.435996004,-3.013282717,-5.779545455,-7.014864635,-2.810647353,-0.142287712,1.184165335,-0.005557942,1.365727273,-0.782154346,-0.879409091,2.271967532,2.600142857,2.584489011,2.341149351,1.697116384,0.460892108,1.843968531,1.575091908,-1.315908092,-1.850507493,-0.825394605,-2.254456044,-2.264686813,-4.642896603,-2.696066933,-5.059147353,-1.459176823,-0.761285714,-0.668901099,-0.827038462,-0.94205994,-2.581834166,-1.437981019,-6.152223277,-6.731523477,-6.800095904,-2.157101399,-3.502420579,-1.755645854,-2.735204795,-5.041964535,-4.962044955,2.873354645,1.036287213,3.898691309,1.240797203,3.249922577,-0.947404096,1.184194306,-2.645727273,-0.692941059,-2.403142857,-0.050023477,-4.095662837,-1.345452547,2.099919081,-1.718552947,-3.075432567,-0.087776224,-2.58106993,-9.73018981,-4.673928072,-2.758593906,1784.396925,1805.577962,3383.654975,1002.297976,972.6879454,1721.666964,5295.970969,4893.07377,6622.294721,557.9425751,551.9536983,863.5277578,2143.32351,2276.906568,3144.233196
12,11,co2a0000380,TRUE,0.830251185,0.800466083,0.66368573,-0.515583103,-0.550002453,-0.218137191,0.451722343,0.749474906,0.728828458,-0.262289446,-0.594528254,-0.455088113,0.340100524,0.392098496,0.770582404,-0.671860168,-0.255756225,-0.304664836,0.687092768,0.405449756,0.672267887,-0.244023453,-0.653983259,-0.494485946,-0.353831658,-0.564608565,-0.401784702,-0.350074862,-0.33047344,-0.198925851,-0.712436427,-0.464654832,-0.246204436,-0.319933583,-0.527767908,-0.312819746,-0.247761017,-0.560435424,-0.258253511,0.017453078,-0.580073264,-0.189330077,-0.242244339,-0.692968915,-0.793914467,0.141101323,-0.048490089,-0.407818491,0.614309638,0.325091097,0.129495647,-7.445281197,-3.135692641,3.67515826,-5.490535836,0.284292225,4.736478561,-3.602150408,-2.761874056,-6.232142253,-9.081977952,-2.819632437,-1.294563576,-5.92194775,-1.577406222,-2.738968892,-1.400007551,-3.332794926,-1.907233162,-2.964539112,-2.63022682,-3.151078526,-2.52615524,-4.375983087,-2.324310782,3.67515826,-2.007941105,-6.189815162,-2.026724252,-2.44176412,-3.625693446,-2.56120598,-2.560104198,-3.460899124,-1.844739656,-2.048090305,-1.367188463,-2.213348535,-2.060229236,-2.703724555,-1.88240743,-3.685191785,-3.830119601,-14.60763395,-4.910145575,-3.296877982,-2.001010873,-6.790503473,-7.988653277,-9.499983389,-3.47676714,-3.320022954,-3.584954394,-4.494963455,-3.406471761,-5.257651465,-4.347256418,-5.998414678,-5.299752945,-6.787970704,-5.440636364,-6.467927514,-4.633234068,-3.342340079,-2.687120205,-3.737835699,-2.507918454,-4.960590758,-6.104485654,-1.235536394,-6.557396255,-1.628815923,-1.867610954,-3.546294184,-0.873045172,-1.722956522,-2.597400903,-6.612989836,-3.145188029,-2.222670807,-4.00334218,-2.494547149,-2.724156973,-2.545538114,-3.221073405,-2.992226426,-4.755999435,-4.78660926,-2.339124224,-7.445281197,-1.98000847,-7.876729531,-2.550975155,-1.086626765,-4.687763975,-2.021103331,-3.34469904,-5.478277244,-2.833210051,-1.430511011,-3.110162055,-1.187699605,-3.962709768,-2.44832524,-1.229733484,-4.541245059,-4.19536646,0.239559006,-5.239521739,-5.378476002,-1.341722191,-8.769140034,-6.838369848,4.015762846,-3.920542067,-3.756909091,-5.328583286,-5.111249012,-5.708314512,-5.562558442,-7.990741954,-7.662858272,-6.476312253,-2.471728402,-8.715825522,-8.403021457,-6.043999435,-3.458766234,-5.739302089,-6.239575946,-6.331538114,-6.527945229,-8.634434218,-9.464079051,-8.539164314,-0.674272109,-2.961386518,5.534918986,0.497883735,-1.703480519,-1.904799629,-7.964260359,-2.056864564,-3.452544218,-3.419511441,-4.74152381,-3.00321274,-4.245982066,-3.058786642,-5.358437848,-3.759750155,-6.438653061,-3.458560297,-3.135692641,-1.605327767,-8.585135436,-1.920755102,-3.029234385,-3.412212121,-3.578837972,-4.050250464,-5.818824985,-0.480191713,-2.95222449,-1.617639456,-3.669344465,-3.467404453,-4.423922696,-1.559768089,-2.57629932,-3.94847248,0.494246135,-4.371758194,-6.047611626,-1.855548547,-8.973598021,-9.636266543,-3.711265306,-4.806465677,-5.511133581,-4.430668522,-6.485021027,-6.712446506,-7.714914657,-7.791943105,-9.05648423,-7.917174397,-5.99039765,-10.04614842,-10.16944465,-7.728571429,-5.296686456,-6.026534941,-7.360934447,-7.440678417,-8.050852195,-7.297618429,-12.14012492,-9.662189858,976.0676196,873.8069516,1252.409671,563.9979466,499.3995915,826.5726457,5867.583954,5070.049674,7033.432018,325.0527139,292.9945947,442.727295,1132.347295,1401.500897,1723.187398
13,12,co2a0000381,TRUE,0.82275033,0.844661894,0.740139769,-0.830640315,-0.647873452,-0.726577644,0.69231089,0.666064697,0.512404996,-0.651294867,-0.443588679,-0.388524714,0.858978454,0.626686771,0.930379506,-0.836162249,-0.780477614,-0.669830589,0.511173272,0.496159174,0.851409381,-0.673134224,-0.521807146,-0.509803985,-0.716037352,-0.491819225,-0.579497621,-0.502815316,-0.654949144,-0.49183217,-0.539057678,-0.484974441,-0.668226209,-0.60045362,-0.487450782,-0.522444713,-0.412203311,-0.184249101,-0.579633152,-0.137077284,-0.050888392,-0.540342595,-0.201878266,-0.127637321,-0.738253659,-0.084766372,-0.184313169,-0.035232224,0.280803487,0.57316376,-0.024400248,-2.990784416,-4.334054545,3.300613997,-4.568765469,-7.090887969,2.573234954,-1.926694084,-1.197128427,-2.064191438,0.008757816,-1.762175084,0.338930736,0.152728475,0.344769601,0.255822992,0.11468254,0.072078884,1.938250601,1.568034632,1.80247619,1.012102453,1.30898076,0.645205628,1.705734969,3.300613997,-1.677364839,-1.298445166,-1.554567581,-0.78107215,-1.619266234,-0.129932419,-1.488183261,0.313433622,-1.132472102,-0.804611833,-0.880703223,-0.435659692,-0.855735209,-0.10010077,-1.189030063,-2.149073593,-1.113257335,-1.693712121,-1.031081289,0.081410053,-1.64325469,3.694345358,2.561283069,3.968511063,3.336088023,2.916116402,3.270955507,2.135183983,2.80624026,1.443410053,2.382652718,1.181474747,4.195049784,3.326812169,3.32659596,1.746748196,4.000030063,3.067938913,-0.09676431,0.219762867,0.91081241,0.613388167,-1.686603896,-1.436145984,3.716726792,-4.148785714,-4.096612161,-4.869108619,-4.090772137,-4.179270366,0.219108028,-0.226423259,-0.535514758,-0.32974144,-1.542674144,-0.234816411,1.891124557,1.618595041,0.975724911,0.90836954,-0.409311688,0.694013577,2.014119835,-3.23074144,-2.924345927,-2.81487013,-2.905004723,-2.325624557,-3.226766824,-2.222404959,-3.90074085,-2.353305195,-1.769821133,-1.552827037,-1.637193625,-0.843008855,-2.255930342,-0.899779811,-1.925113932,-5.950252066,-5.575677096,-6.136836482,-2.928399055,-1.139194215,-3.136692444,-0.248717828,0.165327627,0.150876033,2.802761511,2.503452184,1.687151122,1.80259327,0.723436836,0.94666706,-0.41161098,0.309384298,2.586506494,2.355779811,0.240966942,-0.163274498,2.872998819,2.883247344,-1.784486423,-0.264406139,-1.280473436,0.511382527,-9.033806966,-5.085410272,-0.253034829,-3.266998871,-3.159038961,-4.823596838,-4.122036702,-3.028531338,-0.449446076,0.080709204,-1.625757764,-0.082993789,-2.849212874,-0.956603049,0.936315076,1.350843027,-0.0623738,0.282079616,-1.962694523,-0.639754376,1.350448899,-3.924243365,-2.168973461,-1.841578769,-2.534941841,-1.629523998,-3.24069057,-2.212465839,-4.435168267,-2.724231508,-1.482060982,-0.703684924,-2.081731225,-0.299502541,-3.092211745,-1.287230378,-1.315072276,-5.54720384,-5.119181254,-5.651867307,-4.056907962,-2.028710333,-2.150508187,-1.736907397,-2.635477132,-1.747789949,1.575195935,1.388978543,0.35089441,0.458216827,-0.750230378,-1.060347826,-2.17638227,-2.264458498,1.00545511,0.414819311,-1.709985884,-3.065304912,0.995675889,1.866040655,-3.556412196,-1.354140034,-2.973239977,-1.696589497,-10.25740429,-6.891732355,-1.751464709,796.1616273,731.6730063,1196.235945,514.1452512,516.2640927,731.9900843,4259.477622,5165.539399,4706.864557,297.7127307,283.4639172,421.6262836,1427.808493,1317.004,1868.06159
14,13,co2a0000382,TRUE,0.68157721,0.64328509,0.675297378,-0.903517584,-0.821476484,-0.787304616,0.351420181,0.293587961,0.382968934,-0.847198655,-0.709324356,-0.771581989,0.942159917,0.90240045,0.246007025,-0.835193774,-0.757011674,-0.232709539,0.55292327,0.440687451,0.279925024,-0.784186107,-0.698529497,-0.555770973,-0.880607761,-0.764314085,-0.800096834,-0.080839103,-0.120158326,-0.404974782,-0.763627665,-0.700824002,-0.610314107,-0.743629954,-0.626153471,-0.706439371,-0.7089496,-0.422296165,-0.809040817,-0.361298517,-0.135421365,-0.397377434,-0.506821331,-0.247055708,-0.567238104,0.030791828,0.196664115,-0.315975574,0.343044464,0.53777999,0.092151859,-6.411836991,-8.218788841,10.0852893,-6.430239628,-9.425690104,9.894872508,-1.929705329,-1.522072548,-3.406193462,-1.443892745,-1.766905284,0.303216077,0.502821988,1.06919906,1.001147783,1.186186968,1.959188983,1.45683408,1.600702866,1.999463726,2.084532915,2.059189655,2.910705553,1.295754366,10.0852893,-1.384951858,-1.08179176,-1.064034259,-0.318246529,-1.023719884,0.12929803,-1.589660994,0.657742947,-0.693312808,-0.513753695,-0.038943798,0.29427004,0.193099866,1.399789745,-1.20957322,-3.423435289,-3.343960591,-3.19184841,0.676677564,3.08136386,-1.478090685,5.360351321,6.115430587,5.701831841,2.860419167,3.149282356,3.072767577,3.438469324,3.062102777,4.372828258,3.406142857,5.397622481,4.319401478,5.074952306,4.633319301,6.158597179,4.290214734,2.518876176,1.57143708,2.443920063,2.477672862,3.725845275,-5.927398343,2.278260412,5.425721227,-2.011383581,-1.543446197,-2.630681354,-2.40081679,-1.790685065,-0.75445872,0.036876623,-1.65969295,-0.885309833,-2.995034787,-2.265362245,-0.039408163,0.737535714,-1.282629406,-0.442095083,-2.665467532,-1.980063544,0.990541744,-6.166322356,-2.192943414,-1.43075603,-2.179865028,-1.199096939,-2.715428108,-1.733292672,-4.017738868,-3.108964286,-1.938026438,-1.074291744,-2.298782931,-1.057346475,-3.045750464,-2.371654917,-1.587691558,-1.974529685,-1.804392857,-1.612900278,-3.707056586,-3.179643785,-1.713010204,-1.998018089,-1.671435993,-1.695896104,0.085648423,0.4756141,-0.807653525,-0.04035436,-2.295602968,-1.702306586,-3.88905334,-3.669786178,-0.45380334,-0.047898887,-3.164346475,-2.531357143,0.093740724,0.678487941,-4.160207792,-3.795654453,-4.226738404,-3.885113636,-4.269158627,-7.521282004,-2.05235436,0.196931568,0.256952547,-0.938675824,-1.229617383,0.18759041,0.06881968,-0.75176973,-0.322215784,-1.637975025,-1.94679021,-2.788175325,-0.701355145,-1.382593906,-1.572985514,-2.462026474,-2.647214785,-3.538367632,-0.591245754,-8.033600899,0.415330669,0.087693307,0.428305694,-0.077338661,-0.028640859,-0.55938961,-2.235538462,-2.204160839,0.268788711,-0.546076424,0.087801698,-1.164927073,-1.022417582,-1.650950549,0.032998501,-0.613588412,-0.583461039,-0.921813187,-2.942816683,-2.647144356,0.238007493,-5.068628372,-4.676048452,-4.871157842,-2.25235964,-2.495506494,-2.83667982,-3.078725774,-3.669919081,-3.761324176,-5.236546454,-4.928316184,-3.768504496,-3.480083916,-5.565172827,-4.950844655,-3.377684815,-2.020847153,-4.091827173,-4.178193307,-4.456704795,-4.87264985,-5.674162837,-9.074991508,-5.078091409,792.6865283,801.3595623,1490.163977,595.7761246,588.304447,933.860699,4693.947213,4802.811269,8814.966659,389.3629659,406.8634152,619.4889302,1396.165694,1508.574375,2203.377646
15,14,co2a0000384,TRUE,0.656685825,0.806778616,0.801574638,-0.771403674,-0.590298458,-0.777579031,0.473615187,-0.175306067,0.807542421,-0.848524842,-0.524140896,-0.486443586,0.861654405,0.777306509,0.853516509,-0.577823714,-0.34077444,-0.615419353,0.781085513,0.857659659,0.707467834,-0.80255346,-0.533334406,-0.37371968,-0.868718457,-0.649658826,-0.665532369,-0.035004171,0.188906346,-0.244819118,-0.470886821,-0.238230449,-0.821963412,-0.504540392,-0.146856947,-0.857707101,-0.465390501,-0.450428901,-0.682981337,-0.339833708,-0.049512871,-0.037687915,-0.476404862,-0.300356294,-0.343188548,0.45863645,0.444766304,-0.16023369,0.605600803,0.583914506,0.187273232,-15.77909917,-8.662715629,0.120991519,4.44071147,3.166528017,-0.155815609,-1.853167771,-1.962639809,-2.796986483,-1.826605884,-2.475928174,0.693817652,0.004153724,1.126429897,-0.093892923,-0.177301617,-1.368880201,2.064822157,1.421059104,1.561416114,1.102639279,1.068369202,-0.006526902,1.208784257,0.120991519,-1.484107607,-2.144002385,-1.607813411,-1.906810231,-1.797411079,-1.675408693,-2.291908296,-1.567154519,-1.063292605,-1.88519507,-0.754332362,-1.489092764,-1.3307771,-1.689206202,-1.476837795,-3.597143387,-4.080549695,-2.718443149,-3.260760933,-1.951631063,-1.620800954,-1.725827458,-1.804111847,-1.550393321,2.468020938,2.095643255,2.09929128,1.346395176,0.61296475,0.065505168,-0.235510469,-1.362307713,1.030273787,0.18697005,-1.45139014,-1.371175457,1.242134111,2.093801219,-1.403052213,-1.286650411,-0.781591572,-1.651249404,-3.242887623,-2.493865359,-1.729833024,-3.812703772,-4.690479901,-6.82491713,-9.046064317,-4.182231911,0.124575758,-1.208627087,-0.574359926,-3.029659864,-3.22787384,-5.29432282,0.544912183,0.012758194,-0.844473098,-2.110832406,-3.475828695,-4.098304267,0.223019171,-16.46796351,-2.35125603,-3.579460111,-2.663443414,-4.075047001,-3.962414966,-6.664422387,-6.570709957,-6.683962894,-1.323396413,-1.900486704,-1.87349598,-3.540435374,-3.719184292,-5.819422387,-1.487179344,-6.913322202,-8.524847866,-7.025107607,-8.464810142,-7.7864329,-2.697332715,-9.378030921,-9.683675943,-9.033953618,-0.934400742,-0.810521336,-2.057142239,-1.979558442,-4.815653061,-4.179680891,-8.651710575,-8.020250464,-4.82405133,-4.489510204,-10.37501299,-8.609562152,-3.339092146,-0.641170068,-6.9922282,-6.529790971,-6.547953618,-7.609158318,-9.617735312,-9.058144712,-9.404084106,1.173333184,1.000943126,0.125387819,-0.682485446,1.237223914,-0.332401254,0.639305419,-0.327741603,0.430486341,-0.9909382,-0.267022839,0.148613972,0.502906404,-0.087714286,0.817857591,-1.443110166,-0.638968652,0.059699507,-8.662715629,0.631240931,0.950606807,0.915823556,1.044654277,0.68160815,0.155293775,-0.88904747,0.501686073,-0.57036901,0.969572324,-0.422812808,0.862175549,-0.634652933,-0.250823108,0.014246305,0.353031348,-1.034734438,-0.324112405,-1.32528034,-2.003911778,0.748364532,-6.069300493,-6.338701299,-6.349063144,-0.501841021,0.395524407,-1.0100103,0.459675773,-2.312196597,-1.330724138,-4.651210479,-4.125301836,-3.237473354,-2.857476041,-5.863209136,-5.32077116,-2.523309001,-0.255854008,-2.745936408,-1.206976265,-3.478047918,-3.208667264,-1.504183162,-3.137440215,-6.071069413,1320.047085,1621.182816,2372.738264,719.5816289,896.5425569,1054.80399,9808.904766,9993.128805,12851.15327,422.1445237,513.4758069,679.1451095,1799.158693,2620.513294,2695.327
16,15,co2a0000385,TRUE,0.626504947,0.730604119,0.557054889,-0.663973642,-0.535865556,-0.472425042,0.523201703,0.712080708,0.641356592,-0.714573357,-0.497533936,-0.658338807,0.46455238,0.448810557,0.467296639,-0.375811356,-0.050651698,-0.343309152,0.122680971,0.172074284,0.349846868,0.056045515,-0.334785513,-0.28222497,-0.814278529,-0.635786976,-0.76777342,-0.502472843,-0.233547257,-0.419297036,-0.670853204,-0.257710152,-0.278632547,0.015245762,0.070118722,-0.374762289,-0.308761621,-0.032741229,-0.103329542,-0.2674599,0.145580121,0.018196533,-0.196630416,0.074469958,-0.106793426,0.200759238,-0.152632817,-0.358197202,0.08097419,0.5130795,0.021629145,-4.767754775,-3.133871985,4.617437562,-6.377539292,-7.736793248,2.744642328,-0.753763237,-1.058660007,2.354401265,1.027163836,-0.698261738,0.253192474,-0.038244089,0.584773227,-0.014234099,1.796653014,0.306944056,0.580797536,0.530367632,1.710522478,1.895501499,2.973477522,1.201978355,1.014907426,4.617437562,-0.455213786,0.699579088,0.040025308,-3.956048285,0.289264402,-0.554733267,2.322596071,0.629304695,0.315839161,-0.046627373,0.279728605,-0.232684982,0.516034965,0.28326973,-0.666079254,-0.257041625,-0.653159507,-0.714956044,3.479712621,-1.254055944,-0.814257076,0.904876124,0.315164169,2.061510823,1.802077922,2.620501499,1.745528805,1.186594739,3.994363969,1.721975025,2.340340326,1.240404262,0.456456876,2.259699967,2.032904762,1.714864469,0.151204795,1.554893107,1.451255411,0.561824842,3.018312354,1.100810523,5.097121878,-0.773071262,0.915359973,-2.505874768,-3.728972171,-7.168139147,-4.166226345,-1.097374768,0.94971243,-0.251526902,-0.141659555,-1.028075139,0.581012059,-2.923264378,0.980577922,0.251007421,1.426657699,-1.609496289,-1.546833952,-2.580633581,0.461897032,-5.878565863,-1.092024119,-2.252374768,-2.229154917,5.989315399,-2.194008349,-1.475730983,-4.319713358,-3.666181818,-0.589996289,-1.000600186,-0.903222635,-1.547153989,-2.265296846,-3.014295918,-0.137985158,-3.129904453,-2.93367718,-2.778644712,-2.512955473,-4.301174397,-0.677205009,-2.100836735,-4.69612987,-1.725461967,-1.165432282,-2.690717996,-1.77225974,-0.572754174,-1.602602968,-2.374604824,0.033280148,-2.943951763,1.279833024,-6.824340445,-2.371502783,-2.237660482,-1.487012059,-0.207019481,-3.928051948,-3.823142857,-2.778666048,-7.605861781,-5.198713358,-6.395216141,-2.121747681,-0.979053803,1.011763451,-3.298427644,-0.752500928,-0.403152134,0.300840445,0.95554731,0.417411874,1.372059369,-1.24533859,1.568983302,1.000670686,1.601827458,1.893072356,0.87757885,0.532887755,0.570643785,1.723523191,-3.133871985,-0.545636364,-2.049820037,-0.002532468,-8.691179963,-0.5122282,0.701653061,-1.412309833,-0.112404453,-0.406591837,0.194207792,0.132606679,-5.108539889,0.23857885,0.329806122,0.250379406,-2.020051948,-0.620756957,-0.686327458,-2.515852505,-2.603647495,-0.267456401,0.567347866,2.748397959,1.018930427,0.196343228,2.117084416,2.271132653,1.605772727,-1.57754731,2.370472171,0.221766234,1.361193878,-1.371778293,3.09143692,1.120892393,0.385093692,1.459522263,1.991316327,0.752350649,-1.386293135,3.263866419,-1.376485158,0.010542672,-1.069750464,0.601099258,802.1881103,778.4032412,1195.563503,547.1360752,438.6490195,857.6393329,6194.956029,6627.845023,4003.755875,461.657871,412.8919205,718.0298319,2054.667112,1736.479788,1474.94587
17,16,co2a0000386,TRUE,0.772310768,0.763094452,0.386924554,-0.655182522,-0.803926366,-0.810759086,0.805628086,0.917843975,0.883201681,-0.689816466,-0.491421294,-0.449816256,0.111486259,0.748136067,0.725365737,-0.708934634,-0.518620671,-0.656886549,0.602513618,0.529760481,0.409719851,-0.624655218,-0.326118023,-0.581142772,-0.693928061,-0.619299758,-0.699108705,-0.398413652,-0.430681339,-0.134644023,-0.562525324,-0.73683057,-0.628200702,-0.717773981,-0.830351924,-0.759794875,-0.550017315,-0.349433752,-0.233695019,-0.488303837,0.225108964,-0.433193123,-0.723388432,0.001891209,-0.591031362,-0.056997944,-0.207673093,0.039851268,0.091235578,0.290591166,0.004122693,-5.564542208,-3.887,1.175566605,-6.817316992,-6.695505285,-0.11285692,-3.02715102,-2.00544898,-4.96629833,-3.146206308,-2.461858256,-0.199415213,0.307598887,-0.63213692,0.382018182,-1.103020779,0.845246753,1.670506865,1.057345826,0.333872727,1.395253803,0.034374397,1.227214471,1.060709462,1.175566605,-1.984480519,-1.305882746,-2.351382931,-0.893374768,-3.622322449,-0.681316512,-4.066966605,-2.15354731,-1.275106494,-0.374836735,-1.625352876,-0.036118738,-2.291647124,-0.101410019,-0.515354731,-4.750068275,-2.485492764,-3.236032282,-3.853090909,0.132395918,-1.344336178,2.873299443,2.977431911,2.592145455,2.9289718,2.792445269,-0.625700186,2.090981818,1.731572542,2.130471985,1.075610761,2.06559666,4.259040074,3.222170686,2.940132096,2.634605566,3.598349165,-1.670303896,-0.427215213,0.471351391,-0.25409128,1.659644898,-8.89407013,-6.980100186,2.944440074,-2.075224387,-1.346222222,-2.013912698,0.761528139,-1.152575758,-0.418525253,-0.468250361,-0.456296537,-1.284241703,-1.517362915,-1.910546898,0.279069264,0.373652958,-0.042879509,-0.029870851,-0.946236652,-0.865320346,0.874824675,-7.814551948,-1.665516595,-1.874562771,-1.955656566,-2.322891053,-2.320511544,-7.469859307,-8.585435786,-5.132950216,-1.157155844,-1.28789899,-1.815120491,-1.977627706,-2.451994949,-2.236150072,-0.997005051,-1.983768398,-3.06940404,-2.144894661,-2.464107504,-3.055936508,-1.7836443,-1.0494329,-0.171233766,-0.789925685,1.706351371,1.183015152,2.75124531,0.587991342,-0.853309524,-0.116149351,-1.543655844,-1.589210678,1.220787879,0.849564214,-1.267424964,-1.102231602,2.680712843,2.198744589,-2.661899711,-3.304628427,-1.120267677,-1.859658009,-1.26341847,-7.609912698,-1.003548341,-1.489239114,-1.886269672,-1.188943468,1.480570665,-2.050766998,-0.077911383,0.248487395,-0.482029794,-0.021092437,-2.049564553,-0.161285714,0.694872422,0.827905271,0.137324675,0.332996944,-1.047825821,0.332349885,1.083510313,-3.887,-1.067742552,-0.702437739,-1.216208556,-1.424493506,-2.369853323,0.970374332,-8.215359053,-4.926045837,-0.442167303,0.04141482,-1.16665317,-0.67387395,-2.005718105,3.510201681,-0.237174179,-1.995771581,-2.52541482,-1.467233002,-4.780997708,-0.079365928,-0.38444767,0.291943468,0.417280367,0.113255157,1.777022918,1.732376623,0.673630252,1.590614209,0.120269672,0.585831933,0.042485103,1.100091673,1.876179526,1.488255921,0.783454545,1.210954927,1.062067227,2.443526356,-2.692831933,-0.625155844,-2.433132926,0.300042017,-17.96801375,-2.18699618,0.335473644,712.941752,648.3682702,1051.889883,500.7803303,438.9623914,682.4941034,5028.719759,4081.866615,5802.046219,334.2425269,331.3086513,567.3724857,1318.713146,1153.006229,1851.976552
18,17,co2a0000387,TRUE,0.644255682,0.765363115,0.628195232,-0.673938459,-0.59849227,-0.679435004,0.791132416,0.855759592,0.853866709,-0.538893401,-0.430272115,-0.592914026,0.666869929,0.655114232,0.769875745,-0.758242134,-0.779140243,-0.711974045,0.434501831,0.482380596,0.57591243,-0.554992341,-0.461678963,-0.67717548,-0.599409286,-0.446268568,-0.621308817,-0.225200945,-0.397911034,-0.299957706,-0.755133494,-0.667310343,-0.67089689,-0.444941662,-0.378964598,-0.618891627,-0.621079286,-0.499230191,-0.6131308,-0.273040011,-0.31593349,-0.60902302,-0.561729304,-0.565322226,-0.740533571,-0.090981685,-0.366343461,0.06876701,0.129785985,0.226186554,0.190448048,-18.57894643,-5.679348358,-7.403865164,-21.54751367,-8.819134421,-9.007697151,-3.504949962,-3.573874714,-6.18404851,1.726819328,-3.385084416,-1.200353323,-1.211523682,-1.225124141,-1.277931627,-1.753506494,-1.097711612,0.026150115,0.233883499,0.258801757,0.136182964,-0.618853323,-0.558058442,-0.63563369,-7.403865164,-2.782657372,-2.560892666,-3.232617647,-2.577666921,-3.829794118,-2.300323529,-4.357894576,-1.323452254,-2.713174179,-2.547389228,-2.49240107,-2.077076394,-3.033963331,-1.391940413,-2.858857907,-5.375093583,-4.164418258,-4.002678762,-3.68386631,-2.889694041,-3.121132926,-1.669274255,-1.259264706,-1.238233766,0.533006112,1.473270817,0.107244461,0.980302139,-0.619822765,0.747723835,-2.617771199,-0.247485103,-0.615556532,0.286427426,-2.237772345,0.130436211,0.663429717,0.944299465,-3.386799847,-2.193719251,-2.384465623,-1.347327731,-3.769415584,-9.87671123,-1.44374026,-6.170171429,-7.341077056,-9.937200866,-10.79381385,-6.7914,-1.621613853,-2.450032035,-3.753900433,-5.074498701,-6.735125541,-7.181194805,-2.896105628,-3.958030303,-4.166520346,-5.269236364,-7.142780952,-7.389392208,-2.720452814,-17.28284242,-3.789111688,-5.401318615,-4.678918615,-4.991529004,-7.226939394,-7.314821645,-11.25408052,-9.410042424,-2.218684848,-2.792909091,-3.769398268,-4.96510303,-7.007790476,-5.921300433,-1.237997403,-10.96764156,-10.42321732,-10.52244935,-8.770559307,-7.875178355,-3.459935065,-12.11507359,-12.075471,-12.10879048,-6.270267532,-6.236353247,-7.52417316,-7.133439827,-8.047106494,-9.02101039,-10.88024416,-11.14694199,-9.709244156,-9.041719481,-12.07754026,-12.43791429,-8.865157576,-5.625423377,-9.743752381,-8.498299567,-9.898645887,-9.722312554,-16.36696883,-15.08340866,-11.99155671,-7.387425516,-7.363438503,-10.25576394,-4.208038197,-7.495514897,-0.235186402,0.150478992,-1.177031322,0.043413293,-2.743329259,-1.01100382,0.985009931,1.581752483,0.858932009,1.232695951,-0.85742628,0.385989305,1.024941176,-5.679348358,-5.051302521,-5.051102368,-5.439995416,-4.726068755,-7.04834683,-4.583730328,-8.927227655,-5.674304813,-2.485071811,-2.172888464,-3.340669977,-2.634524828,-5.1181589,0.034997708,-2.385197861,-11.07985867,-9.84597097,-11.02766692,-6.27031016,-3.314747135,-4.895814362,-3.217927426,-3.228060351,-3.050829641,0.740047364,0.990369748,0.001374332,0.690283422,-0.758867074,0.010851031,-2.33357754,-1.388066463,-1.886563789,-0.532080214,-2.952964859,-2.297724217,-0.450356761,0.760258212,-4.67549809,-2.358271963,-3.088330787,-1.895022918,-15.97783117,-13.7215042,-3.31515508,961.4449411,992.6572865,1328.172574,684.7307937,695.6477536,1012.177191,6877.332167,5833.204637,8899.706538,351.3958854,296.0209599,479.6212474,1643.697672,1521.194533,2209.207252
19,18,co2a0000388,TRUE,0.813171201,0.859543537,0.458159727,-0.610155254,-0.538521992,-0.817574386,0.599275433,0.559297496,0.769307837,-0.425128855,-0.571113608,-0.678208564,0.559983588,0.748905753,0.884072968,-0.641436404,-0.776536437,-0.895350193,0.438648379,0.444034435,0.651396777,-0.490323563,-0.302503035,-0.696221643,-0.578808612,-0.64305348,-0.862312969,0.050961486,-0.211794952,-0.2218079,-0.586354093,-0.611815264,-0.723500694,-0.322970522,-0.503759369,-0.761232263,-0.315933823,-0.650741284,-0.661741565,0.24711318,0.009017599,-0.493026717,-0.499740906,-0.371397674,-0.596480465,0.342531789,0.166934636,0.201266343,0.696456063,0.717864525,0.067355367,-11.50776935,-4.688952381,4.152725564,-8.858009219,-5.800651042,0.582765728,-1.615296309,-1.094959672,-3.305720437,-0.950989405,-1.035561859,1.045697198,0.445494874,1.420358852,0.038178059,1.707036227,-0.374837662,1.386386876,0.214453862,0.931302461,-0.275418319,1.14657758,0.869320232,0.38836056,4.152725564,0.400415584,-0.234548189,-0.381754956,0.123390294,-0.790016063,-0.565391319,-0.901471292,-0.601928913,-0.2198527,-0.807965824,0.391988038,0.172921394,0.505464457,-0.066098086,-0.154712919,-2.33457758,-1.326816815,-1.988522556,0.958656869,-0.645504785,-1.618500342,2.646928913,1.227193438,1.960145591,0.920910116,0.689884484,2.005979836,1.590452495,2.399718387,0.911469583,2.4332054,0.99332365,2.91734689,0.721767259,3.349692071,2.811804511,0.909160971,0.749885167,0.010506494,0.181957621,1.192712235,0.832544771,-5.769053315,-3.375058783,2.719662679,-4.724773506,-4.539235325,-6.211403636,-7.53709039,-3.424255065,0.235857143,0.212997403,-1.927157922,-0.385698701,-2.344162597,-1.90402961,-0.247869091,-0.590425455,-0.681960519,1.67250026,-3.241244675,-1.585665455,-0.478698182,-11.50776935,-2.76260987,-2.598829091,-2.927845714,-2.476587013,-2.979962597,-3.911569351,-6.022122078,-6.642647273,-0.495342857,0.562744416,-2.433951688,-0.90674961,-3.618021299,-3.783982857,-1.040499221,-6.603695065,-7.139203117,-7.910712727,-4.502211948,-5.04416987,-2.127397403,-4.792232727,-5.418938701,-4.720691948,-1.549572987,-1.559052987,-1.621795844,-3.206301299,-2.716617143,-1.911652987,-4.839146494,-2.290905974,-3.677317403,-2.343172987,-3.924506494,-3.863709091,-3.085855065,-0.909931429,-5.03489974,-3.985382857,-3.679469091,-0.699641039,-15.1524987,-10.61240831,-4.745882597,-0.919873918,-1.667975108,-3.014260281,-2.274617424,-1.296327922,0.884284632,1.143462121,-0.450633658,0.991546537,-0.842937229,0.534484307,0.871439394,0.988297619,-0.582020563,1.043715909,-1.386893939,1.602619589,0.696142857,-4.688952381,0.650417749,-0.353209416,-0.105107143,-0.94348539,-0.047449675,-1.802100108,-2.007777597,-2.652695887,2.790919372,-0.162999459,0.049263528,0.059429113,-0.939818182,-1.695154221,0.469952922,-3.968306277,-3.708468074,-3.068572511,-1.748318182,-1.449029762,-0.321448052,-1.284533009,-1.412373918,-1.274424242,0.22603842,1.571922078,0.017833333,2.043818182,1.286305736,1.454339827,-0.344481061,1.070766775,-1.790719697,-1.135291126,-0.333126623,0.267511364,-1.573355519,0.641895022,-1.829832792,-0.670939394,-1.195530303,-0.632864719,-9.894876623,-5.650004329,-1.318626623,1160.869783,1066.567842,1907.580211,521.8762371,523.9887611,684.0824641,5634.600879,5595.444739,8534.313492,457.3963652,387.8769489,549.6090616,1791.986856,1833.340342,2459.027505
20,19,co2a0000390,TRUE,0.866136391,0.782977932,0.696760376,-0.540546023,-0.175862984,-0.660309971,0.329421948,0.225171254,0.7881318,-0.038226263,0.271725386,-0.530278486,0.008501008,0.209856143,0.389664594,-0.355773892,-0.51968224,-0.445340813,0.254497152,0.040583111,0.68500228,-0.087297968,0.205719625,-0.531832309,-0.308086147,0.036295491,-0.65996269,-0.485205613,-0.138470504,-0.151186081,-0.387982994,-0.400921161,-0.516053697,-0.274675796,0.298550938,-0.597879148,-0.464180754,-0.3747859,-0.498694536,0.197636955,0.004009916,-0.227851889,-0.24875081,-0.47758599,-0.254877558,0.036955577,0.3774939,-0.213987047,0.508021834,0.551968697,0.574324178,-9.832543531,-6.311166334,4.067577031,-9.727994358,-8.371150541,1.106819853,1.958654189,1.489877769,0.874453782,1.742200407,1.814333079,-0.215305831,0.371681436,-0.17170741,0.761777438,0.250836771,0.933387828,0.194593328,0.599268653,0.00701426,1.208350649,-0.016495544,1.48783779,0.382595365,4.067577031,1.399277311,0.940029284,1.619201426,1.007015533,1.957832442,1.022624905,2.290269162,0.99928877,0.385149733,0.27899618,0.764881334,0.601907054,0.959555131,0.60484441,0.081677871,2.608149987,1.494467787,2.013869621,0.228146422,0.583524064,1.035194296,-0.222148714,-0.395440031,-0.774370003,0.773867838,1.054258722,0.3099315,1.461230965,0.229426789,1.977724217,-0.337139547,2.132096511,0.489644767,0.943375859,0.256265852,1.332640693,0.538592819,0.37751286,-0.403507767,0.943615483,-0.460718105,1.484329768,4.147655717,3.62498905,-0.150406672,-2.609791727,-2.25217797,-1.326463684,-2.142550265,-2.168015873,-0.898515633,0.50187975,-1.548100048,0.301494468,-2.376419432,-0.405454545,0.277810005,1.093286676,-0.538329966,1.125531987,-1.678270322,0.402967292,1.071126022,-9.832543531,-2.440789803,-2.143940837,-3.532,-1.75470659,-2.987391053,-2.388823954,-4.548519962,-3.637125541,-2.011775373,-0.958102453,-2.055637807,-0.689675806,-3.058256854,-1.794167388,-1.429314574,-3.727976912,-3.451978836,-3.734623858,-3.200280904,-2.652204425,-2.348792208,-2.673865801,-3.07030303,-3.254175084,0.677091871,1.366790765,0.121679173,1.230035113,-0.533030303,0.45177393,-2.148367484,-1.231207311,-0.246319384,0.050256854,-1.592197691,-2.050668591,-0.175809524,1.06740885,-3.168075517,-1.879737374,-3.100770563,-0.844518038,-5.738271765,-7.332932179,-2.656266955,-1.288830669,-1.006082418,-0.565427572,-1.176314186,-0.930894106,-0.264427572,-0.389697802,-0.912727273,-0.932952547,-2.553495005,-2.077591908,0.089229271,-0.665668332,-0.616975025,-0.725735265,-3.825331169,-1.651967033,0.047416583,-6.311166334,-1.110316184,-0.593400599,-1.432727273,-0.972691808,-2.377267732,-1.951664336,-4.369285714,-2.097635864,-0.605166833,-0.519136364,-1.023599401,-0.855722777,-2.702623377,-2.441632867,-0.674795205,-2.508036464,-2.017507493,-1.909125874,-4.062092408,-3.895532468,-1.017378122,-4.69677023,-4.751037463,-5.39034016,-0.279375624,-0.608014985,-0.506311189,-0.71861988,-1.726284216,-1.194215784,-3.571683317,-2.779254246,-1.879851149,-1.922141858,-3.053326174,-3.411077922,-2.153445055,-0.71956044,-4.500843157,-4.037520979,-4.542273726,-3.222691309,-4.098525475,-7.210474525,-4.688185315,873.7724509,915.5348602,1337.147242,616.4019439,605.8328803,927.6971364,5022.252383,5087.696172,6164.092613,389.5874523,402.0497864,572.9615429,1310.808198,1432.696828,1753.158812
21,20,co2a0000392,TRUE,0.595956832,0.356206557,0.122806975,-0.451019737,-0.693120518,-0.790121034,0.617472879,0.741894943,0.966357731,-0.302883797,-0.448355033,-0.750384902,0.746413935,0.877870145,0.775344447,-0.695799685,-0.836366282,-0.962226396,0.593877307,0.789858049,0.73238945,-0.050140636,-0.170281314,-0.233568103,-0.287423162,-0.553844823,-0.764311559,-0.334020542,-0.147836912,0.635939945,-0.562698929,-0.709015872,-0.942175838,-0.189998079,-0.570302391,-0.663540223,-0.22139507,-0.598568053,-0.706671835,-0.226550308,-0.300908023,-0.650013687,-0.319948511,-0.709637652,-0.695325202,0.132414946,0.069840652,0.752676369,0.139509308,0.216047041,0.595595009,-11.01797263,-6.14098002,10.60136085,-8.087073103,-5.59253726,7.651982143,-3.300685529,-4.121552876,-6.597948361,-5.883452999,-4.420995362,0.088317563,0.173203463,0.702218615,0.644768707,1.099884972,1.292837972,1.78663791,1.777126778,1.680742733,0.649815399,2.338477118,2.572221088,1.970194805,10.60136085,-2.988907545,-2.860199443,-3.068835807,-2.608907236,-3.131864255,-2.957731602,-3.076950835,-1.91439765,-1.230116574,-1.169753247,-0.717807669,-0.323609153,-0.533304576,-0.556622449,-1.443449598,-7.878076067,-7.622521027,-7.723900433,1.152235003,0.399776747,-2.84792115,5.328401051,5.228331478,5.605107607,3.230265306,2.485087817,3.254957947,3.254995053,3.142027829,2.922108534,4.189498763,4.117162956,5.256592455,5.075374768,6.105707483,5.240661101,4.444196042,3.267441249,3.410662647,2.058215213,3.982664502,3.108471243,-21.20124057,4.144006184,5.31675974,-1.854268089,-1.583663265,-3.549883581,-3.193067718,-1.837051484,-1.126649351,-0.375100186,-0.705107143,-0.515817718,-1.65437013,-1.790206865,-0.302743043,-0.395606679,-0.486554267,-0.032466141,-1.652429963,-2.082466141,-0.268204082,-11.01797263,-1.229489796,-0.772299629,-1.257611317,-0.763776438,-2.037149351,-1.311117811,-3.604197124,-3.731535714,-0.70383256,-0.452047774,-1.144697124,-0.585647495,-1.983372913,-1.307057978,-0.334115028,-3.55359462,-3.925716605,-3.602869202,-3.11248423,-3.265831633,-0.855381262,-4.54658256,-7.267813544,-7.313763915,-1.09829731,-1.867592764,-1.220874768,-1.154182746,-2.647782468,-2.611834879,-3.625745362,-4.324857143,-2.751551948,-3.039104824,-4.273675788,-3.977199907,-1.254408163,-1.27041141,-2.905216141,-3.365153525,-2.930127551,-4.002552876,-6.963905844,-7.492513451,-4.582878479,0.303093407,-0.171476523,-0.685143856,-2.032818182,-0.0902003,0.780966034,-0.803598901,0.485988012,-1.183957043,-0.269133866,-1.678982018,0.306126374,-0.305199301,-0.078067433,-2.428102897,-0.005485514,-1.63817982,0.127791209,-6.14098002,0.527681818,-0.341539461,0.618298202,-0.478733766,0.539833167,-1.04328022,-1.440703297,-1.891887113,0.500145854,-0.372057443,0.36710989,-1.270792208,-0.118282717,-1.611244256,-0.076456044,-0.91257992,-1.435723776,-1.045213287,-1.614595904,-2.507608891,-0.045842158,-2.902178322,-4.770766234,-3.590122877,-0.093628372,-0.847305694,-0.289463536,-1.27092008,0.271943057,-1.293204795,-1.507490509,-2.911546454,1.007963536,0.860649351,-1.027348152,-3.192612388,-1.590490509,-0.219829171,-0.9909995,-2.667866633,-0.663647852,-2.739610889,-5.541226773,-5.349060939,-2.931655345,988.7692415,1043.361183,1906.469291,606.7232954,702.3147087,933.3654309,5646.189509,4991.260302,8109.272849,343.4649834,546.5646013,641.8769622,1444.523814,1690.250999,1705.257048
22,21,co2a0000394,TRUE,0.733270272,0.654639555,0.63098323,-0.474060676,-0.580887562,-0.697495855,0.668730537,0.698325388,0.861127903,0.269711142,-0.192922544,-0.58051157,0.69460693,0.848102649,0.785100338,-0.633679775,-0.487092829,-0.707937716,0.740630334,0.579410166,0.561457654,0.098943749,-0.415067309,-0.576305465,-0.00751814,-0.338251658,-0.679242121,-0.002981851,-0.202598497,-0.336992456,-0.669545613,-0.491235965,-0.691329932,-0.135177534,-0.486210468,-0.666083941,-0.319747065,-0.496509005,-0.774686001,0.069410053,-0.456527191,-0.39673985,-0.204060732,-0.541406577,-0.539680785,-0.240062492,-0.052359734,0.085510202,0.441573087,0.430580026,0.523999754,-15.42868132,-12.16912944,2.161638017,-9.428859375,-8.277195964,1.265693679,0.762279811,0.660663991,0.871751594,1.376886895,0.593604014,0.080017946,0.166483589,0.479125384,0.342723022,0.430114758,0.306640142,0.303249115,0.288739079,0.254902007,0.413374734,-0.057789847,0.217708146,0.152541204,2.161638017,0.431396458,0.410167178,0.705340732,0.76035183,1.1999634,0.931773318,0.82859693,0.71869941,0.092493979,-0.031699174,0.394308619,0.409245809,0.341736009,0.124777804,-0.50834876,0.8096451,1.027354664,0.833065407,0.510215348,-0.045469658,-0.105779693,-2.798917119,-3.129774262,-3.034212751,-0.363574026,0.028083117,-0.740420779,0.103063991,-1.134176151,0.003588902,-1.83932562,-0.695367651,-1.599418654,-1.317300354,-2.613486659,-2.404859976,-1.665217237,-0.262703188,0.102415112,-0.083879575,-0.348079575,0.039738135,3.859251476,1.151927981,-2.744319008,-4.863301299,-4.504592208,-6.956203117,-7.364094545,-4.400653506,-1.931428571,0.18406026,-4.747992727,-0.964205195,-7.356383896,-4.002044675,-1.106280519,0.068281558,-3.448263377,-1.613230649,-6.593318961,-4.952566753,1.256644156,-15.60716104,-3.060512727,-2.926556883,-3.850267013,-3.565995844,-5.109372987,-5.398820779,-8.562591169,-7.861435325,-3.179183377,-0.911795844,-4.502447792,-2.068223896,-7.13264987,-5.012735584,-0.880761558,-6.826227013,-6.760180779,-6.464258701,-8.798621818,-7.480943896,-2.386528831,-9.351971429,-10.54912156,-8.184633247,-2.537811429,-1.975878961,-4.24463013,-3.109089351,-6.717424416,-5.449516883,-9.876936104,-10.11478494,-5.589527273,-5.567201039,-9.643395844,-10.78572156,-4.544284675,-1.359641039,-8.978884156,-7.506356364,-9.211040519,-8.190974026,-14.15420468,-13.92317143,-9.351483117,-2.289957576,-2.64202381,-4.369295671,-5.476092641,-2.148639827,-0.100237229,-1.421428139,-1.407520779,-3.498106926,-4.310049784,-4.580316883,-0.445634632,-1.007103896,-1.657480952,-2.7165671,-4.823335065,-4.841217749,-0.842910823,-12.16912944,-0.641919048,-1.580957143,-1.44214632,-3.228725108,-2.57355974,-4.68175974,-6.048435931,-6.687590043,-0.518061039,-1.376696537,-1.587861472,-3.446101299,-3.990258442,-5.210959307,-0.54052381,-3.735151948,-4.307150216,-3.651338528,-7.199291342,-7.031748052,-0.899248918,-10.14761775,-10.91908918,-10.05377619,-2.429886147,-2.609557576,-3.470817749,-3.093608225,-6.139483117,-4.698663203,-9.387025108,-8.746596104,-5.671748485,-5.994090909,-9.901227706,-9.9821671,-5.4023,-2.193233766,-7.992027273,-6.825679654,-8.609055844,-7.139296104,-10.7582368,-11.01770779,-10.13029481,1972.739051,2205.883096,3295.731557,1012.108922,1100.426858,1506.138467,6633.502247,5113.820393,7748.66561,451.7177895,460.9593832,698.8931488,1825.279449,1946.373229,2431.456494
23,22,co2a0000395,TRUE,0.542638171,0.611898246,0.450978863,-0.637559695,0.100713112,-0.725543935,0.347312332,-0.111606924,0.489686876,-0.556342031,0.078263477,-0.661235407,0.354922565,-0.318112345,0.363192033,-0.665416518,-0.016561665,-0.600741716,0.430850672,-0.071115797,-0.01717007,-0.319374147,-0.024948131,-0.64049872,-0.72021807,0.22029148,-0.773301799,-0.323930133,0.153309788,-0.505948426,-0.571959333,-0.38033205,-0.412933919,-0.637296352,-0.553370522,-0.755941436,-0.330130728,-0.417306198,-0.39157345,-0.307900446,-0.285450339,-0.38962478,-0.615216378,-0.157725078,-0.442694572,0.212565195,-0.135521068,-0.238796404,0.305736231,0.360639612,0.094821915,-8.988465368,-5.659060761,4.51206437,-5.381472331,-4.399175781,3.054316916,1.641567758,0.727182101,5.640477132,1.670363636,1.125611519,1.237011293,0.416832016,2.062241954,1.631045172,2.314737154,3.164607284,3.019997177,2.939186335,3.416408244,3.245196217,2.720531903,3.42965415,2.739264822,4.51206437,0.755946923,-0.081590344,1.312326934,1.20985319,1.552800678,0.452463298,3.230682665,2.384830322,0.257097403,-0.529240542,1.235055618,1.144612084,1.737253811,2.023441276,-0.819885093,2.940594862,1.406265669,2.519688876,1.353484472,3.727060982,0.14870751,3.736727555,4.098625918,3.80475974,4.540682947,3.14777188,4.686983343,4.285828346,4.077018351,4.189824958,2.941032468,2.628331451,5.396695652,6.137590627,3.97339441,4.844302372,4.842055901,5.001470073,1.307982496,0.10755703,1.669998588,3.456260023,3.207102202,3.425775268,3.739120271,-5.154213745,-6.291900433,-8.050073593,-7.270657468,-5.969952381,1.741835498,-0.942032468,2.562169913,-0.756432359,0.878575216,-2.824568182,4.170213203,2.500369048,4.699525433,1.222999459,4.231483766,-0.868314394,3.833261905,-8.988465368,-3.673589286,-5.144395563,-2.77085119,-6.342005952,-2.827820887,-6.133630952,-4.238674242,-8.582871212,-1.302719156,-1.548048701,-0.38711039,-4.192183983,-0.78109632,-4.012169913,-3.546080628,-6.447370671,-8.333950216,-7.45305303,0.116506494,-8.944986472,-4.508092532,-1.288510823,-2.835209957,-2.488685065,4.643223485,2.43433171,5.318291126,1.96495184,2.581251082,-0.440406385,0.085705087,-2.284978896,2.613457792,-0.900044372,-0.375247835,-2.504416126,1.920958333,4.316666126,-2.139984307,-4.367596861,0.083670996,-4.872970779,-8.770325758,-5.819880952,-1.315520563,-0.90946243,-1.652469388,-2.059327922,-5.49003525,-1.269029221,2.001699907,0.80002551,2.954902597,0.593116419,2.16743692,-0.384296846,4.326402597,3.081089981,4.80160436,3.053906772,2.890138219,1.07936039,3.458232375,-5.659060761,-0.533419295,-2.412977737,0.252580705,-2.455880334,1.201435993,-1.811653989,-4.524320965,-2.068106679,0.04137384,-1.034627551,1.364652597,-0.866667904,1.029121058,-0.944170686,-1.657644249,-2.44531679,-3.033551484,-2.969938776,-2.264442022,-0.467497217,-1.209384508,0.084305659,-1.16954731,-1.854345083,5.888955937,3.504567718,4.65275974,2.819196197,3.619464286,1.895887291,-0.77608256,0.914220315,3.613434601,-1.30596846,2.179019017,0.623317718,2.39612013,4.748352505,0.032620594,0.40480705,-0.265753711,-1.167235622,-5.25484462,-3.790520408,0.05494666,1640.117059,1756.965259,2431.911612,1150.014607,1196.096146,1578.411166,4690.387398,4445.934679,4968.182257,953.6156684,971.97231,1240.529567,1643.623754,1583.018969,2027.889956
24,23,co2a0000396,TRUE,0.832115022,0.808058255,0.878013533,-0.398151682,-0.356170667,0.33577622,0.156153134,0.214512794,0.641005243,-0.253681966,-0.293841539,-0.601940679,0.587277374,0.502140936,0.650178727,0.41240848,0.609070889,0.68597069,0.60047498,0.420543838,0.530276675,0.322888772,0.465555312,0.364917889,0.324775283,0.459005046,0.351881924,-0.571684772,-0.619496059,-0.601216935,0.189758633,0.50760289,0.549666969,0.278814648,0.296708641,0.259999354,0.049480494,0.130077981,-0.352144621,-0.10955134,0.251827184,0.203193238,-0.325368894,-0.151983099,0.132982772,0.564154181,0.775631679,0.556288387,0.391232017,0.767461591,0.759599306,-12.64455659,-14.38650711,-1.630676562,-7.948239118,-11.71889621,1.874107422,-4.185455782,-3.986361472,-5.197504638,-5.499639765,-4.278424552,-4.220869511,-4.200594929,0.175786642,-1.208739641,-0.185204082,-2.562314471,1.337704391,0.862189549,-4.354615337,-4.313714595,-0.034860235,-0.915524119,-3.97278726,-1.630676562,-3.270680581,-2.598012059,-3.002117502,-3.173384663,-3.272803649,-3.497695424,-3.740149351,-3.964834879,-1.690854669,-2.242333333,-1.219150588,-2.595310142,-1.457206246,-2.591893321,-4.117447124,-5.600209957,-5.954835807,-5.215238714,-2.777246135,-3.309996908,-3.24221645,-5.126416203,-0.182444341,-4.06683859,-4.003707792,-4.039319728,6.370903834,-0.030316327,-4.281260049,-4.254871985,-1.664888683,-2.080913111,-0.422704082,-2.980571429,-4.155199134,-4.144599567,-4.094894249,0.997261905,-1.295803958,-3.450987941,-1.382219233,-3.332943414,-7.227254484,-3.926587508,-3.956614409,-2.700798701,-2.134210575,-3.540233766,-2.692916512,-2.661217069,-2.785153989,-2.746780148,-4.050211503,0.190359926,-4.54767718,-1.719104824,-1.286745826,0.163665121,-2.836665121,-2.825274583,-3.885179035,-3.702308905,-2.634855288,-12.64455659,-2.331823748,-0.46844898,-2.979164193,-0.431286642,-3.815230983,-1.79571243,-5.305068646,-4.033630798,-2.599207792,0.505130798,-4.374928571,0.175781076,-4.665302412,-1.614486085,-2.725851577,-3.347332096,-2.451076067,-2.908311688,-6.358865492,-4.371999072,-1.525690167,-10.71158627,-9.363878479,-2.677491651,-2.649575139,-2.670209647,-6.375247681,-3.38917718,-2.802512059,-2.806513915,-6.367390538,-7.341194805,-4.07677551,-4.454700371,-2.753674397,-2.738502783,-2.721959184,-1.880365492,-6.791986085,-4.979169759,-6.465687384,-6.247473098,-5.444869202,-2.598609462,-2.628845083,-4.517047001,-4.181447124,-4.639044527,-4.647719852,-4.372291899,-4.306491651,-4.293899196,-1.393918986,-2.497308596,-3.233503401,-4.317471243,0.245892393,-0.02155102,-4.418778602,-4.394014842,-3.036784787,-4.08169697,-4.074477427,-14.38650711,-3.813322202,-4.251640074,-3.967591218,-4.195134818,-4.593727891,-4.61257081,-5.524489796,-6.085899196,-2.141097712,-2.643301793,-1.947908472,-3.713714286,-3.941654298,-4.369869511,-4.214909709,-4.384481756,-4.061090291,-4.102959184,-5.739080396,-6.433124923,-3.669094001,-9.06305504,-7.297131725,-4.157927644,-4.089162647,-4.116119975,-1.371452072,-2.80308287,-4.37580705,-4.33378726,-5.859497835,-7.284407545,-4.531504638,-5.046376005,-4.259561534,-4.226066172,-4.179917749,-0.8772282,-5.733629561,-7.033636982,-5.764335189,-6.967843537,-7.114940631,-4.017199753,-4.046238714,984.9142096,1170.53859,1965.657543,463.2256495,596.8359245,941.6928694,4081.957022,4889.574554,11434.35496,360.9095598,413.6058052,670.0665483,1241.297016,1538.829,2557.890925
25,24,co2a0000398,TRUE,0.776777901,0.640475405,0.67898235,-0.694024736,-0.683554155,-0.845632709,0.788493041,0.786750979,0.786148762,-0.613380985,-0.581132103,-0.723570811,0.744953281,0.688930544,0.791899435,-0.805325693,-0.862565846,-0.865766102,0.507149789,0.429164231,0.465933048,-0.734433467,-0.695046443,-0.795139478,-0.653211188,-0.639689097,-0.812133405,-0.328224102,-0.372697318,-0.201521978,-0.703744238,-0.793075681,-0.642279485,-0.476507743,-0.541934072,-0.511306538,-0.534812447,-0.583281379,-0.345058543,-0.441670506,-0.601840003,-0.404036068,-0.503365841,-0.777119139,-0.596216704,-0.29283768,-0.072518609,-0.073050003,0.744194775,0.242917137,0.558231408,-13.17977879,-4.624938648,0.893493506,-7.475155078,-2.436646552,2.629013725,-1.694098982,-1.393878203,-2.893307827,-2.280176202,-1.547517024,0.274462267,0.864227097,0.240590383,1.45853668,-0.375730432,0.649785188,1.529305721,2.029380835,1.406661636,1.767869779,0.548197613,0.808991576,1.506038259,0.893493506,-1.127200421,-0.645565462,-1.363053001,-0.767691471,-1.621662338,-0.763385047,-2.651446472,-0.727121446,-0.574349596,-0.15230186,-0.845888733,0.184017901,-1.217696034,0.044191997,-0.657555985,-2.921391014,-2.77166304,-2.545106002,-1.758695683,-0.761398385,-0.962913654,1.160472797,-0.616560899,1.868626185,2.81132292,2.942935065,2.173362583,1.538718849,1.868105651,-0.456644086,0.502427869,-0.556810811,2.58572271,0.299051246,1.905326079,-1.351849772,2.796305019,3.769539488,-1.000483327,-0.498639874,-0.562356616,-0.635810109,-5.731481221,-1.866358371,1.160621622,-6.317877922,-6.189464935,-10.1732381,-10.87251732,-6.156172294,-0.655884416,-1.252025541,-1.874337662,-3.201633333,-4.577865801,-5.473820779,-0.600206061,-1.087912121,-2.270762771,-4.075189177,-4.35757013,-6.036865801,-0.038504762,-13.17977879,-2.983299134,-3.217577922,-3.500306061,-3.870332035,-5.483931602,-5.923739394,-9.185088745,-8.963846753,-1.075999567,-1.665108225,-2.268150216,-3.158211688,-4.886312554,-5.547825974,-0.578481385,-10.62315931,-10.8096026,-10.22635368,-7.364029437,-8.145148918,-3.275030303,-5.832358442,-7.57502381,-6.234442424,-2.050574892,-2.706472294,-2.976696104,-5.494564935,-4.728180952,-8.049586147,-6.535574892,-9.268193506,-5.392998268,-7.315245022,-6.918091775,-9.562583117,-4.672496104,-1.004542424,-6.846451082,-7.91400303,-6.435760173,-7.513650216,-16.18629437,-11.90910823,-5.871409091,-2.447916704,-1.901702194,-4.72529691,-4.599934617,-2.006472459,-0.355782803,0.651264666,-0.59188043,0.410251232,-1.634708912,-1.445850425,0.412715629,0.730482759,-0.102975369,-0.829999552,-1.078605464,-2.392671294,0.75581236,-4.624938648,-0.781726825,-0.682079713,-0.665783699,-0.300003135,-1.84775056,-1.246606807,-4.45577519,-3.281717421,-0.534070757,0.215240036,-0.616091357,0.218973578,-2.075285714,-1.31283923,-0.381268697,-4.921989252,-4.95229691,-4.502914017,-3.407126288,-3.138676668,-0.900556202,-3.034246305,-6.34088446,-4.393382445,-0.018913121,-0.770412897,-0.605086879,-2.627263323,-1.029962382,-5.414755038,-2.344944917,-6.62240215,-2.595135244,-4.696751903,-2.084167936,-7.571524854,-2.470800269,0.693484102,-3.081639051,-3.280282132,-2.261229736,-4.64581236,-8.118952978,-6.394919391,-3.079731303,1222.036787,1266.05761,1594.278857,855.5897817,835.3541559,1046.624601,4857.005229,4420.436411,5780.757115,643.131738,554.9849255,754.8164375,1731.85842,1891.32212,2377.674713
26,25,co2a0000400,TRUE,0.273319132,0.28826414,0.092540911,-0.667999436,-0.348871597,-0.548608863,0.679596109,0.75861473,0.440317403,-0.741776869,-0.336758434,-0.597401046,0.832274798,0.314788765,0.424998034,-0.810879378,-0.754810924,-0.723231356,0.167851971,0.072082142,0.526038973,-0.823591816,-0.369531033,-0.512563702,-0.750179524,-0.356381098,-0.548363944,-0.304760287,-0.307904422,-0.023193924,-0.587995025,-0.681748777,-0.77901614,-0.734664062,-0.55037863,-0.557091388,-0.516938119,-0.249642551,-0.637476041,-0.6132013,-0.363329184,-0.560319638,-0.665574585,-0.32993038,-0.614232713,-0.245007643,-0.076209901,0.375431356,-0.189129568,0.060949929,-0.166606763,-12.32563185,-3.287911688,0.619206818,-11.6018142,-4.417339323,-1.163180469,-6.672062013,-7.245573052,-6.342662338,-7.003805844,-7.57272013,0.659174026,0.193482143,0.260678571,-0.200306169,-0.287441234,-1.034163312,4.137050974,2.373538312,3.205486039,2.384456169,2.094259091,1.474858766,3.48925974,0.619206818,-5.374660714,-5.572394156,-4.600939935,-4.950365584,-4.031667208,-5.458793831,-4.125332792,-3.881082468,-2.648710065,-2.866204545,-2.121999026,-2.690269156,-1.820798377,-3.079775325,-3.781097727,-7.906114286,-8.124094481,-8.719547078,-2.227684091,-1.378608766,-6.040380519,4.832995455,3.601082792,4.264319805,8.011100325,5.676200325,7.572400974,5.615526299,5.666874026,4.747202273,2.190275325,2.871018506,7.611760065,5.193017208,4.002024026,3.557741234,6.370869805,6.244993506,-0.961487013,-1.644886039,0.808648377,0.998369156,-8.925369481,-2.245613312,4.933172078,-12.28036307,-12.86254376,-14.34186166,-15.8833546,-12.37545116,-0.642378317,-1.905506494,-2.31838227,-4.322984754,-5.085027103,-7.142900056,1.84535799,-0.661792772,-0.189296443,-2.992583851,-3.655494636,-5.662103331,1.392653868,-12.32563185,-8.789119142,-8.922956522,-8.989112366,-9.784078487,-10.02901186,-11.6573083,-11.83108809,-14.13343535,-4.497789949,-4.869194805,-5.131563523,-6.751729531,-8.134610954,-9.33795144,-4.396881988,-15.51899097,-15.90752005,-15.40219198,-9.858753247,-9.775326934,-8.585318464,-6.44660926,-7.04629249,-5.834646527,3.330156973,0.578229249,3.151817053,-0.68916262,-1.650450028,-4.19835799,-6.715466403,-8.672860531,0.397893845,-2.107264822,-5.819604178,-7.384280068,-1.221897798,1.58615415,-8.178245624,-8.989894975,-7.08596725,-8.386639752,-22.50809656,-13.34790119,-6.315488989,-12.18240087,-12.29022597,-11.76731515,-12.68034199,-12.61100519,-1.015107359,-1.031836364,-2.539028571,-2.489725541,-3.715399134,-3.251381818,2.692198268,0.645484848,1.429056277,0.096671861,-0.780912554,-1.397438961,1.727014719,-3.287911688,-9.540211255,-9.036380952,-8.658004329,-8.876680519,-8.982058009,-10.3388632,-9.405077056,-11.94698615,-5.797912554,-5.01038961,-5.439121212,-5.351069264,-6.730850216,-6.767268398,-6.063206061,-13.50651515,-13.9857342,-13.88213333,-7.622975758,-8.995182684,-9.904674459,-0.410837229,-1.249262338,-2.365225974,5.809961905,2.809895238,6.533857143,2.647035498,4.49077316,1.671516883,-0.938590476,-1.12805368,4.760605195,1.916504762,0.582883983,-1.15809697,2.041567965,3.449464935,-5.072408658,-4.575166234,-3.684206061,2.741620779,-15.08958182,-9.027733333,-0.225455411,1023.025727,950.7863722,1408.49157,705.0465698,503.7422858,895.5450456,6532.367582,4294.996722,5390.28683,328.7737067,243.2325703,411.2145633,1847.157938,1324.228843,2413.310505
27,26,co2a0000402,TRUE,0.864670294,0.697082839,0.618749799,-0.70243441,-0.61618045,-0.790081474,0.444309709,0.520796405,0.590091426,-0.425342364,-0.163330969,-0.635748678,0.892638406,0.906310809,0.916609781,-0.488112299,-0.663341227,-0.603292383,0.537766545,0.79708876,0.601907866,-0.440044438,-0.329806065,-0.700306021,-0.582560089,-0.385827261,-0.797764756,-0.39175145,-0.099101659,-0.461375089,-0.236724362,-0.496095922,-0.600297496,-0.719602646,-0.70282014,-0.740929726,-0.516071069,-0.477218431,-0.705135106,-0.024419602,-0.20873921,-0.535265932,-0.378616035,-0.239355817,-0.501647698,0.133557561,-0.416875747,-0.149797272,0.532108432,0.315820683,0.429851376,-7.49235964,-9.536979708,2.700588571,-6.045932542,-10.81609131,1.702659922,-3.811381039,-3.755114286,-2.148074286,-2.777550649,-3.570160779,-1.623858442,-0.833716883,-1.519877662,-0.998767013,-1.326568831,-1.080554545,-0.217301039,0.254753506,-0.314966753,0.652696883,-0.748466494,0.029078961,0.003670649,2.700588571,-3.946295325,-3.772187532,-3.59159039,-3.754105974,-2.659953506,-3.124917922,-2.398604416,-2.741834545,-3.118206494,-2.936121558,-2.48046987,-2.081612987,-2.044122857,-2.035164156,-3.64038026,-2.634548312,-2.715,-2.714318442,-2.193447532,-2.07945039,-4.402186753,0.439580519,0.388713766,0.492055844,1.534027792,1.922137922,1.620342078,1.987060519,0.66733039,1.014804935,-0.832664935,0.601951429,2.284957143,2.536057403,0.307748052,0.786400779,2.227203377,1.457945714,-1.971937922,-1.450767013,-1.26297039,-0.074825455,-0.046264675,-1.819991688,0.500773766,-6.505432727,-6.479674286,-8.339231169,-6.925607273,-6.226861818,-1.447688831,-0.762330909,-3.031509091,-1.66825974,-4.709467532,-2.560147532,-1.087943377,-0.27373974,-2.227833247,-0.300577143,-4.090792727,-1.475742338,-0.417052468,-7.623616104,-5.165535065,-5.161903896,-5.665486753,-5.483372987,-7.265792727,-5.707343896,-8.780839481,-6.945714805,-3.694952727,-3.387478961,-3.962260779,-3.471060779,-6.12858961,-4.203208312,-2.915376104,-8.210074286,-7.570545455,-7.503171948,-7.708981818,-5.345914286,-4.82926026,-4.593988052,-3.679037922,-3.991514805,-0.687428571,0.549218182,-1.932592727,0.132114286,-3.060627013,0.42749974,-6.340082078,-2.888766753,-0.960998442,0.340871169,-4.861266494,-2.266558442,-0.664867532,-0.278804675,-6.950197922,-4.323306494,-6.89765039,-3.044775065,-11.15537974,-12.46426701,-4.442472727,-3.500784903,-3.955897727,-4.034254058,-4.032892045,-3.699096591,-0.212967532,0.507439123,-1.212409903,0.732862825,-2.820590097,-0.7246875,0.789494318,1.768551948,-0.388469156,1.51745211,-1.883467532,0.641460227,1.303030844,-9.536979708,-2.697346591,-3.10013474,-2.567606331,-3.039486201,-3.542077922,-3.361306006,-5.506544643,-4.653016234,-1.665685065,-1.220464286,-2.05793263,-1.085700487,-3.657765422,-1.998864448,-1.738516234,-4.114018669,-4.256972403,-4.361329545,-5.716784091,-3.858488636,-3.338431006,-2.194354708,-1.657012175,-2.052864448,1.471196429,2.513267857,0.441107955,2.421873377,-0.783176136,2.097882305,-3.481377435,-0.625620942,1.238853896,2.875800325,-2.331038149,-0.396538961,1.167619318,1.817704545,-5.465672078,-2.466595779,-4.494268669,-1.069612825,-8.226069805,-8.560581981,-2.232429383,1256.270321,980.1643071,2059.667475,933.3347598,708.7735758,1351.687979,6456.878502,4608.331003,7371.023042,514.868776,448.7655423,785.0009091,1821.180333,1604.614981,2761.021032
28,27,co2a0000403,TRUE,0.732384768,0.668676044,0.247996354,-0.048570257,-0.531856492,-0.863526984,0.406209642,0.670249537,0.956354482,-0.230897791,-0.434559221,-0.732553875,0.642522784,0.737247637,0.802417387,-0.339744218,-0.561099928,-0.860468516,0.646505639,0.553650959,0.754947242,-0.426686764,-0.505332323,-0.749420248,-0.025624468,-0.682776321,-0.832689879,-0.395483449,-0.444173237,-0.702893185,-0.16766221,-0.551382928,-0.766089526,-0.077407406,-0.708338137,-0.792221506,-0.21871135,-0.467232873,-0.64285155,-0.389572508,-0.437246082,-0.655884694,-0.169418826,-0.650333091,-0.622960509,0.059020867,-0.332864432,0.183827459,0.051437068,0.094902409,0.232631834,-5.090936989,-3.337344697,5.90751214,-4.680000868,-3.654958496,4.835006114,0.152189723,0.548116036,-1.31941502,0.535279221,0.380217956,1.437875494,0.795868154,1.991629588,1.143515528,3.145712874,2.243339074,2.204604461,2.486406268,2.630594579,2.195411067,3.529987013,2.890701299,2.328545172,5.90751214,0.221108413,0.196271316,0.902412196,1.733211745,1.592544043,2.2261869,1.314686335,2.921455675,0.169696499,0.242759458,1.629095709,0.664043478,3.133705251,2.229988425,-0.599935065,-0.981408809,-1.802170525,-0.766438453,3.210490119,3.212763693,-0.032022586,2.479051101,0.035883682,0.964429136,3.701878882,3.972250706,3.472698758,3.338503953,3.557529362,2.987245342,4.162994071,2.786106437,3.027338509,4.28093083,2.989891869,2.303200452,3.20384218,4.032021457,3.717798984,3.300906832,3.392158103,3.358387634,-2.706773574,3.283704404,3.168030491,-1.084298701,-0.566418677,-0.927625232,0.880620903,-1.131807669,-0.925369821,0.017350031,-0.885188621,0.351270872,-0.56262214,-0.077954855,0.361384045,0.628708101,0.577969079,0.974750155,1.04482684,-0.208666048,0.451844156,-5.494961039,-1.185955473,-0.224554113,-1.081226964,0.216401979,-1.004329623,-0.394260359,-1.107926407,-1.479424242,-1.556241806,-0.28173222,-1.27580334,1.540710575,-0.481285096,-0.453059369,-0.578538652,-1.255202226,-0.653053803,-1.236101422,-2.593155226,-1.075360544,-1.149708101,-1.757641311,-3.040683364,-4.234989487,0.826767471,-0.107684601,1.159993197,-0.292137291,1.100418677,-1.129576994,0.397482993,-2.188541126,0.158122449,-1.034512678,0.011628942,-2.943276438,-0.595760049,1.037014842,-0.350489796,-1.199719852,0.788176252,-1.854295609,-0.620608534,-2.167095238,-2.129012369,1.360143939,1.351652056,1.048167749,0.161705628,1.281688853,0.911693182,-0.013530844,2.253282468,0.129731061,2.59094697,0.351340909,2.328975649,1.854373918,2.974515152,1.300704545,3.061293831,1.074010281,1.429375541,-3.337344697,1.388814935,0.465997294,2.271496212,1.401524351,2.297377706,1.547108225,1.06791342,0.272113636,1.055137987,-0.55459632,2.291208874,-1.042979978,2.680966991,0.40063474,-0.642069264,0.391566558,0.353938853,0.733753788,2.130614719,-0.515215368,0.846111472,1.201954004,-1.139727273,1.385028139,2.424969697,2.950487554,3.140784632,2.349089827,3.17532684,1.660621212,3.436863095,0.140785714,1.793979437,0.21615368,3.236127165,-0.596428571,1.302665584,3.202077381,2.324665584,-0.112916667,3.614638528,0.455159632,-1.510194264,-0.928287338,-0.859694264,780.2842126,761.2107466,1172.366799,670.6263429,633.3684924,909.7813207,4370.864666,3812.978161,5755.774814,574.0611269,508.0463766,695.4093131,1342.752531,1535.49023,1813.257505
29,28,co2a0000404,TRUE,0.281932646,0.467483852,0.679528429,-0.487324106,-0.711249595,-0.512189011,0.706272726,0.759518913,0.732884176,-0.282931291,-0.526742666,-0.092120907,0.552590391,0.338654539,0.367663364,-0.590395466,-0.459832619,-0.460777854,0.393819093,0.321669737,0.34956041,-0.444894564,-0.554080631,-0.541236694,-0.320554261,-0.715987378,-0.122543247,0.01111864,-0.439293129,-0.581892984,-0.523297672,-0.370620153,-0.329337826,-0.474446573,-0.602102401,0.16459567,-0.639227775,-0.710112911,-0.512812646,-0.397952811,-0.292612953,-0.543104464,-0.395704541,-0.42590827,-0.531110628,-0.381670808,-0.383882683,-0.346147256,-0.109728805,0.036173019,-0.138502086,-3.081945455,1.87657372,3.105283309,-2.85593875,-0.016866268,1.460743996,1.708679654,1.168343434,3.166050746,2.606618086,1.37930303,0.298385041,0.61816811,0.906425204,1.309947811,1.239110149,2.000698653,0.518792929,1.105143098,0.744855459,1.995929293,1.178283069,2.431862915,0.314461279,3.105283309,0.593414141,0.597854257,1.084188312,0.970146465,1.829525253,1.735580327,2.268919432,2.064786917,0.304997595,0.317535354,0.905550505,1.052276335,1.380431217,1.522809764,-0.182015873,2.907930014,2.609247715,2.760912939,1.697820106,1.8752405,0.346429774,1.591943001,2.616036797,2.0983848,0.088006494,1.396687109,0.303788841,2.475417989,0.888173641,3.281226792,1.198671717,3.962999278,0.535080327,2.036528139,1.039890572,3.518165224,1.168606542,0.698878066,1.48112482,2.114583935,1.617960798,2.455638769,5.124532227,3.952195286,3.781424483,0.215585455,-0.04041974,0.308281558,-0.437152727,0.135741299,0.173536623,0.019487792,0.193743896,-0.187172987,0.107758442,-0.326416104,-0.396208312,-0.404625974,-0.354104935,-0.700709091,-0.488412987,-1.345678961,-0.50023013,-3.081945455,0.023188571,0.274513247,0.169701818,0.207681039,0.578097143,-0.049507013,0.22378961,-0.734991688,0.052671169,0.175074805,0.217593247,-0.164337662,0.192841039,-0.720735065,0.113751688,0.474531948,0.074381818,0.310983896,-0.025383896,-1.213599481,0.162712208,-2.601073247,-2.696877922,-2.541515844,-1.02229974,-1.311887792,-1.264881558,-1.603761558,-1.500338182,-2.188363117,-2.406059221,-3.012961558,-2.262566234,-2.338970909,-1.722133506,-2.986264416,-2.193839481,-1.557005195,-0.409866494,-1.675483636,-0.979236364,-1.903742338,-0.086233247,-1.409222338,-1.337947532,2.862101461,2.07636039,3.511597403,1.962111201,2.342411526,0.810144481,0.166493506,1.755413961,0.758060877,1.930090097,0.789732143,0.722069805,0.258844156,0.611529221,0.738170455,1.103633929,0.883801136,-0.082866071,2.491551948,1.944285714,1.378449675,2.462021916,1.45662987,2.707796266,1.753168831,2.955602273,1.961100649,1.317194805,0.504738636,2.224973214,0.755169643,2.291667208,1.183819805,0.444193182,3.480247565,2.652267857,3.052883929,2.213847403,1.233717532,1.343872565,-0.985413149,-0.060569805,-0.547776786,-0.628,-0.418474838,-0.298199675,0.35242289,-0.104625812,0.569103084,-0.770672078,0.940116883,-1.010037338,-0.05161526,0.939907468,-0.05300487,-0.704877435,-0.493862013,1.845646104,1.043579545,0.860815747,0.830900162,5.118,2.424611201,2.295868506,704.1299289,588.9604923,1323.526742,488.8879717,364.3085134,739.0674084,3222.970728,2540.228381,4627.119732,288.1951197,230.7273878,422.8718228,1175.047568,977.3707579,1606.011774
30,29,co2a0000405,TRUE,0.731143694,0.569352483,0.494641392,-0.599197484,-0.459843478,-0.755668718,0.27391584,0.594862179,0.656058843,-0.641980208,-0.37736362,-0.549835244,0.442866629,0.317107389,0.577523175,-0.325037135,-0.43008165,-0.597102338,0.580299693,0.460890145,0.423786844,-0.542120428,-0.223543655,-0.483682247,-0.573343455,-0.389254805,-0.646064252,-0.396421675,0.037909602,-0.191961082,-0.624023896,-0.512170016,-0.594393346,-0.472771822,-0.301374248,-0.501498937,-0.507935068,-0.386277255,-0.709867175,-0.303384522,0.01006829,-0.452224146,-0.394213672,-0.118864158,-0.389990286,-0.372755132,-0.384193711,-0.22487429,0.198930088,0.384307658,0.00152549,-4.240759241,-6.523326967,1.210454855,-5.811594351,-8.073652803,1.51847154,-0.88395671,-1.16731107,-2.741807669,-2.133257267,-0.922468769,0.485284168,-0.067324366,-0.266225108,-0.529260359,-0.71067316,-1.274380643,-0.067164502,0.235792826,-0.034897032,-1.258589672,-0.466794063,-1.499746135,0.041643785,1.210454855,-0.296158009,-0.688608844,-0.351865492,-0.566521954,-0.661927025,-0.816869821,-1.251418986,-2.521161719,-0.04475603,0.044659246,-0.027807669,-0.428399196,-1.553354669,-0.933077922,-0.09405102,-2.319906926,-2.308545764,-1.342315399,0.432391466,-0.500480519,-0.583952999,-0.674374768,-0.720504638,-2.946666357,-0.133764378,-0.380612863,-0.527162647,-2.200849103,-0.589363946,-1.982163265,-0.120940631,-1.390290043,-0.208724799,-2.487914348,0.051163575,-3.295203772,-0.514462585,-0.19794867,-0.710432591,-1.40577551,-0.468008967,-1.41564966,-5.258851577,-1.199379406,-1.118517007,-0.487926074,-1.572413586,0.829593407,-0.171751249,-0.793021978,0.061985015,-2.096675325,-1.166372627,-1.425509491,-2.052981019,-2.406040959,-0.808738262,-1.41369031,-1.708693307,-1.474186813,-3.504626374,-2.740432567,-0.254378621,-4.240759241,-0.776145854,-2.508991009,-0.655206793,-2.044336663,-0.3578002,-1.668384615,-0.830724276,-2.38205994,-0.505391608,-1.36659041,-1.406716284,-2.20484016,-1.449472527,-1.986734266,-0.644150849,0.713126873,-0.179818182,-0.47774026,-1.516913087,-2.348027972,-1.477959041,-3.186497502,-0.952734266,-6.643577423,-1.384188811,-1.445043956,-3.164976024,-2.678362637,-3.736761239,-3.632167832,-4.767145854,-14.68385814,-3.153873127,-4.769637363,-3.003201798,-5.658501499,-2.302511489,-1.017865135,-3.000726274,-2.340759241,-4.309332667,-3.113284715,1.485135864,-2.326216783,-2.198564436,0.443342301,1.481372913,0.44346846,1.352494434,0.43443321,-0.215258813,1.624236549,-2.274928571,-0.122001855,-2.770179035,-1.779490724,-1.219991651,-0.027550093,-1.672267161,-2.134730983,-2.358230056,-2.81730334,-0.438382189,-7.716867347,0.654817254,0.897009276,0.250513915,0.870609462,-0.477309833,0.483834879,-2.352016698,-2.245402597,-0.08811039,0.989698516,-1.159087199,0.497682746,-2.836974954,0.082591837,0.33112987,0.431597403,1.667413729,-0.511576067,-3.070560297,-0.534897959,0.573254174,-4.320441558,-1.597790353,-8.249039889,-1.757357143,-2.308120594,-2.913087199,-3.918820037,-2.948005566,-4.726121521,-3.270991651,-4.268641929,-2.682457328,-4.694474026,-3.477799629,-7.688377551,-4.671755102,-1.639732839,-4.391786642,-2.681368275,-4.202555659,-4.062154917,-3.652691095,-5.852285714,-5.663450835,1479.348411,1455.985729,3317.91792,444.0707543,489.5643239,829.313999,4163.082847,4435.395644,5207.901644,218.89283,240.8390183,407.2658267,1149.778161,1509.051095,2236.479469
31,30,co2a0000406,TRUE,0.56381866,0.362613601,0.478933427,-0.615216783,-0.587377151,-0.808869154,0.19472752,0.595099638,0.702787859,-0.599898622,-0.640709167,-0.82700656,0.681581702,0.87677474,0.929547581,-0.611104295,-0.813413127,-0.856811035,0.371604233,0.439738352,0.74644161,-0.554827231,-0.532691957,-0.776653463,-0.650077807,-0.718005289,-0.859873082,-0.369273057,-0.372462557,-0.017632201,-0.280627326,-0.729493436,-0.750754612,-0.512479427,-0.767614224,-0.792838486,-0.081104853,-0.304576683,-0.659751905,0.393030951,-0.338924596,-0.501105262,0.15392459,-0.406804577,-0.283360528,0.236703744,0.233459963,-0.231522173,0.669021561,0.289993169,0.244015121,-5.222954163,-2.436241187,1.228272727,-7.766269072,-5.561105748,-0.086169271,-2.353924242,-2.296099134,-2.48202381,-2.407138961,-2.309458009,0.191581818,-0.089142857,0.015647619,0.092685281,1.097978788,0.010655411,1.277317749,1.411765801,1.57294329,1.545331169,0.957405628,1.401448052,1.121218615,1.228272727,-1.607020779,-1.746300866,-1.207190043,-0.928043723,-1.418161905,-2.271286147,-0.858802597,-1.827971429,-0.067833333,-0.862747619,-0.416045455,-1.209793074,-0.171406926,-1.76602381,-0.863255411,-2.800222944,-4.331718615,-1.980833766,1.451654113,-1.315176623,-1.988797835,2.215419048,3.560190909,1.762161905,2.637904762,1.19811039,2.226277489,1.583533333,3.044144156,2.326407359,0.772214286,3.250180519,4.153169697,1.396547619,3.212152814,2.350575758,3.016431169,2.036821645,2.078887446,-0.264119913,0.798183983,0.882981385,-2.159931602,1.11277619,1.072719048,-2.567574675,-1.061783279,-2.876684253,-2.555320617,-1.347792208,-0.191487013,1.222241071,-1.236705357,1.067345779,-2.045964286,-0.515719156,-0.547475649,0.590043831,-0.363788961,0.866351461,-2.567842532,0.118475649,0.115392857,-5.177545455,-1.67488474,-1.095890422,-1.886456169,-1.366048701,-2.588334416,-0.898566558,-3.72998539,-0.610064123,-1.746350649,-0.227386364,-1.134228084,0.371853896,-3.182258929,1.792495942,-0.706543831,-4.071060065,-3.381801136,-1.986919643,-3.058739448,-1.51429789,-1.157156656,-2.192629058,-4.354328734,-3.349979708,-0.940249188,0.799690747,-2.18236039,0.72838961,-2.576489448,0.438911526,-3.505025974,-4.104116883,-2.525909903,-2.74844237,-3.420446429,-3.418871753,-2.153141234,-0.739981331,-3.091329545,-2.611862825,-3.450782468,-2.098905032,-3.053318994,-6.905114448,-6.63749513,-1.236916084,-0.5373996,-1.443509491,0.598243756,-0.886440559,0.909743257,0.364751249,1.710335664,1.004577423,-0.683782218,0.368113886,0.919995005,0.845564436,0.288096903,1.429721279,0.290230769,0.143969031,0.515644356,-2.198742258,-0.972589411,-1.326000999,0.055325674,-1.576404595,-0.670672328,-0.885923077,-1.689435564,0.691941059,-1.256117882,-1.188907093,-0.494898102,-0.289847153,-0.85236963,-0.613210789,-1.142838162,-0.276322677,-1.487097902,-1.082297702,-2.271214785,-1.570787213,-1.301238761,-3.275501499,-2.77334965,-1.594455544,0.691883117,0.918102897,2.186063936,1.168745255,0.032274725,-0.458813187,-0.106624376,-2.212772228,2.200475524,-0.148828172,0.417647353,-2.093901099,-0.951619381,1.027123876,-3.146608392,-2.016386613,-0.831343656,-4.34193007,0.72722977,-4.083458541,-3.898021978,643.98352,590.324939,864.7221338,442.7155551,422.9108282,626.9020323,4516.206366,3719.22713,6156.118688,220.990179,204.0140037,339.3098097,991.6082712,961.4729618,1452.5175
32,31,co2a0000407,TRUE,0.846866407,0.731985537,0.504414684,-0.162131456,-0.485090538,-0.5401,0.240992628,0.062485067,-0.064725441,0.026191677,-0.322120413,-0.670799176,0.422975319,0.566848106,0.454093473,-0.148587518,-0.496318748,-0.41936074,0.275440636,0.434847799,0.131531844,0.219797349,-0.399324967,-0.512516149,0.03994209,-0.286063109,-0.618590662,-0.69469376,-0.012989977,-0.484120822,0.130052868,-0.522373929,-0.378231543,-0.36277498,-0.284140025,-0.794935522,-0.084878108,-0.294171195,-0.681097197,0.265867954,-0.069442135,-0.350800293,0.054814225,-0.4690769,-0.509464856,-0.31171344,0.01700176,-0.320261313,0.45029974,0.122638224,-0.015546122,-15.56604082,-3.752694805,2.851751036,-8.037814453,-4.90189388,1.618464927,-0.048640508,0.292950815,1.132190108,1.663053606,-0.014043658,0.793606521,1.293216082,1.010086488,1.737405913,0.639430782,1.878090909,1.178493506,1.718292346,1.422103067,1.911446809,0.777381873,2.066193424,1.230920144,2.851751036,-0.390951644,-0.209830893,-0.130760707,0.550743576,0.236335728,1.12828378,0.904709312,2.030514783,-0.156935894,0.519595468,0.094295662,1.355208069,0.54790688,1.543470019,-0.277709036,1.267981487,1.310058027,1.088274385,0.837147002,1.818091185,-0.662110251,0.733576955,0.572040066,0.032080685,1.286360321,2.063880906,1.351295109,2.289484388,0.458907157,2.747893617,-1.455196463,2.137790826,0.910349544,2.344081791,-0.774229069,2.355358663,1.990523349,1.731718983,0.480734733,2.097617574,0.730447361,2.311530257,3.725648798,2.327844708,2.221966842,-4.601132189,-3.461957328,-6.540534323,-4.955455009,-3.665394712,0.382801948,0.446536642,-0.91369295,0.021714286,-3.073167904,-2.139646568,0.897522263,1.280733766,-0.405665121,-0.620412338,-2.59086039,-1.36609833,1.009173006,-15.56604082,-1.763042672,-2.319977273,-1.856629406,-2.295499536,-2.541691095,-2.906679499,-6.569709184,-4.57934462,-0.748176716,-0.863006494,-0.768134972,-1.448412338,-3.085923469,-3.225463358,-0.842345547,-5.588800557,-5.406695733,-6.016711039,-4.938583952,-5.462437848,-2.022051948,-2.752266234,-4.010087662,-4.256378479,0.3493641,0.370076994,-1.114947124,0.593891929,-2.077417904,0.222253711,-3.921262059,-4.750075603,0.30571846,-0.916331169,-3.994199907,-1.143778293,-3.705470315,0.807283395,-5.458409555,-4.810121985,-4.79078757,-3.337621985,-9.358071429,-12.69809647,-12.18399536,3.053010101,2.259163059,-0.252488456,1.346613276,2.038221501,-0.272981241,1.466715729,0.123160173,2.016851371,-0.926819625,0.407984127,0.12708658,0.017090909,0.073620491,1.136386003,-0.441077922,0.345805916,-0.277967532,-3.752694805,1.830652237,3.254554834,1.26802381,2.413538961,1.478191198,1.935670274,-0.51945671,0.033527417,0.358362915,1.756303752,-0.448683261,1.701700577,-0.548105339,0.179434343,0.733336219,1.051842713,1.058574315,0.97502886,-1.351457431,-0.656429293,2.144727273,-1.487707071,-2.771229437,-3.084857143,-0.106715007,-0.212877345,0.105089466,0.470739538,-0.744348485,1.313224387,-2.192323232,-0.490362915,-0.544560606,-0.45037013,-2.55575974,-0.048743867,-1.920364358,-0.697227994,-1.6640671,-0.570845599,-0.5720671,-0.159663781,-3.088177489,-2.74189899,-2.552261905,1104.584805,923.1334026,2222.830547,718.4677145,540.3259955,952.390433,5797.457187,3842.843356,7961.892037,453.2918271,357.5763584,563.3647997,1521.979727,1444.11284,2346.028505
33,32,co2a0000409,TRUE,0.71162297,0.5115243,0.663225188,-0.554470958,-0.620971468,-0.791287163,0.551066744,0.288636868,0.612108674,-0.541566862,-0.655304145,-0.587289917,0.782067697,0.881720644,0.688058689,-0.706958724,-0.718917853,-0.642798252,-0.020807375,0.415574471,0.362584498,-0.673509951,-0.427693147,-0.660144599,-0.449977331,-0.647105682,-0.58716304,-0.184298259,-0.16273226,-0.322141303,-0.571068798,-0.8475219,-0.660759109,-0.295300185,-0.521940714,-0.666204569,-0.286142533,-0.67656658,-0.354971441,0.074430623,-0.072624288,-0.090808235,-0.368579851,-0.67632078,-0.43777993,-0.06806185,0.181202712,-0.103502612,0.464505536,0.55698589,0.437962473,-20.421505,-11.29710575,-5.922772478,-14.06012049,-9.193900949,-4.816963191,-0.061712537,-0.943201548,-3.390071429,-0.788724276,-0.803041958,0.649318681,-0.002864885,1.106153347,-0.003076174,0.409586164,-1.444531469,-0.232127622,0.78797003,0.018053197,-0.113611139,1.335783217,-0.641133866,1.230706543,-5.922772478,0.125352897,-0.807055694,2.004952048,-0.462201049,-1.355331918,-2.466261239,-1.113212537,-2.981601648,-0.340102148,-0.089019231,0.79233017,-1.125582168,-1.132692058,-1.560222777,-0.521444805,1.715887612,-1.490791958,0.540912088,-1.926633117,-3.248336663,-1.056250749,1.244704046,0.735626623,0.310642857,2.226405345,1.429717532,2.574817932,1.014033966,2.273328671,0.355167832,-0.047878122,-0.027986014,2.182508991,2.01224001,0.65129021,-0.786123377,2.013592907,1.150285465,-2.830302448,-2.028013736,-2.003850649,-3.201526224,-3.685638362,-5.040042208,-4.833123127,-3.277437403,-3.770175584,-8.795737143,-6.886554805,-5.028777143,1.218147532,1.172686234,-0.592588052,-1.679637922,-3.845180779,-5.357311688,1.678377143,-0.199136623,-0.324268571,-1.014318961,-4.900645195,-3.619506494,3.629671169,-21.4803813,-2.129363636,0.197037403,-2.517254545,-2.239363117,-3.56846026,-5.164151688,-9.96376987,-7.042368831,0.299859221,0.071026494,-2.892006753,-2.339652468,-5.43321039,-4.864504416,0.350123117,-5.942434286,-5.417122078,-5.958785974,-8.999007273,-8.543195844,-2.253033247,-6.264792727,-7.726482078,-7.375294545,-3.412109091,-1.553018182,-1.955132468,-4.551157403,-2.910226494,-5.841541818,-6.89522026,-7.580398442,-3.776278442,-4.706854026,-5.723899221,-7.687592727,-3.837166753,-1.959849351,-7.694701818,-4.497720519,-4.952690909,-8.61375013,-11.23228156,-15.94466442,-15.23084156,-4.461405844,-2.594319573,-6.605993506,-0.880929963,-3.656782468,0.441593692,1.942213358,-1.454684601,0.181390538,-3.068320501,-3.137589518,0.644844156,1.620425788,0.924335343,1.48480334,-1.917912338,-2.967463822,1.578805195,-11.29710575,-1.791906772,-1.010296846,-4.802352041,-0.722444341,-5.324351577,-2.923644712,-7.68912384,-4.594019481,-1.598222171,1.384228664,-2.766117347,0.49103757,-4.727411874,-3.280068182,0.452836271,-6.072454082,-5.112931818,-6.242725881,-7.457377551,-6.332195269,-1.489827458,-4.199237477,-4.597693878,-4.83787616,0.397048237,0.657455473,-0.309983302,0.249884045,-0.397865955,-1.883335807,-3.014730056,-6.639861317,-1.690228664,-1.135666048,-3.181679963,-4.520069573,-0.802746753,0.349178108,-5.970481911,-7.777788497,-5.928595083,-4.079793135,-10.88341187,-11.97197449,-11.51146939,1223.00956,1202.851874,1813.317593,690.3821454,672.9528347,942.3945523,6752.420921,5826.712962,7592.6897,617.083064,585.8593024,830.243586,1595.335292,1411.565738,1880.969918
34,33,co2a0000410,TRUE,0.666908953,0.770009285,0.540298152,-0.536644559,-0.493749018,-0.392126361,0.467151096,0.645259018,0.204201174,-0.587284193,-0.316425031,-0.299827987,0.677733243,0.433083141,0.511971659,-0.640909821,-0.60832174,-0.52280999,0.423310511,0.137187509,0.067369182,-0.66845541,-0.566024289,-0.343316305,-0.599047281,-0.422660422,-0.389720974,0.395355,-0.03257531,0.021152037,-0.679002433,-0.490821752,-0.536344985,-0.58273567,-0.600176592,-0.598782973,-0.34492647,-0.066952187,-0.512896474,-0.263392119,-0.286395178,-0.46747036,-0.212386873,-0.502013215,-0.540940227,0.229752317,0.088272851,-0.28446056,0.202283501,-0.065154472,-0.128144876,-11.24602597,-1.935291486,0.77922936,-6.797579716,-4.025258391,1.117253418,1.763793599,1.218300325,1.528033395,2.146499072,1.389923701,0.978242811,-0.114974954,1.68662987,0.212471707,2.180281308,0.600725881,0.972690863,-0.278676948,1.320628247,-0.35738961,1.495250928,-0.401397263,0.205485622,0.77922936,1.349420455,0.892391234,1.45654244,1.039668831,1.645889147,1.38607166,1.78092231,1.243549397,0.728163961,0.169516698,1.719258349,0.747883349,1.99669179,1.1214891,0.203439239,1.878694109,1.500689007,1.834943646,1.731702922,1.794838358,0.966791744,-2.994671614,-4.583536642,-2.788199443,-0.367037801,-1.620663497,0.113210111,-1.931082792,0.176967301,-2.069185761,-0.235724258,-1.552111085,-1.96396475,-2.914881262,-1.30106192,-3.723652134,-2.632310529,-0.655303108,1.813553803,0.708912106,1.244278293,0.139462662,1.608963358,0.235493275,0.233173933,-3.337029341,-4.073671958,-2.686786436,-7.766616162,-3.775888889,1.201377585,-0.466970178,1.442852333,-1.40826455,0.18320202,-2.691565176,1.593910534,0.135958153,1.711584416,-1.284579125,0.708561809,-2.25227898,1.088069745,-11.24602597,-2.319717653,-3.379828764,-1.786139009,-3.718258778,-1.64112987,-3.880762386,-3.902974507,-5.586154401,-0.857774411,-2.212946609,0.126876864,-2.01087494,-0.958520443,-3.602933141,-1.793114478,-4.413141414,-5.152056758,-4.77602886,-4.000314574,-6.069643579,-3.215388167,-3.334403559,-5.844157768,-5.11335113,0.994944204,-0.813381914,1.174669553,-1.586998557,0.327977874,-3.26112025,-1.744583935,-5.308798461,-0.847706109,-3.22647619,-2.489547379,-4.567815296,-1.721988456,0.560728716,-2.000532468,-5.027918711,-2.19816835,-7.229491582,-5.745984608,-7.770024531,-7.794924483,-0.537784091,-0.835334957,-0.755609848,-1.073993506,-1.050965909,1.318133658,1.556810065,2.771114177,2.547424784,3.371665043,3.183589827,2.38594697,2.342346861,4.023161255,3.539977273,4.177721861,3.100039502,1.702197511,-1.741832251,-0.641241883,-0.927205628,0.362621753,0.118577381,0.748767857,0.304254329,0.072033009,-0.129590368,-0.2495671,0.052705628,1.610517857,1.558948052,2.141537879,1.301715909,-0.987183442,-1.001077381,-1.219780303,-0.772290584,4.252571429,0.638739177,-1.297129329,0.757294372,-0.665462662,-1.055034091,3.31012013,2.02636526,4.700678571,2.327382035,4.68717316,2.286928571,4.464304113,1.573337662,2.558198052,1.456108766,3.575904762,1.642081169,1.096959957,2.322054113,3.135183983,2.146535173,2.959136905,2.278835498,-1.479780303,-0.226181818,-0.236772727,861.5439973,1029.605449,1275.519291,567.801088,553.7101838,808.2395407,5143.719233,5335.333725,5807.858013,378.6703062,380.5214052,587.0667576,1653.752944,1938.589718,2023.392954
35,34,co2a0000411,TRUE,0.420134213,0.66318508,0.517349937,-0.332921703,-0.0882771,-0.643829443,0.493798215,0.564492379,0.711361225,-0.247495559,0.125697369,-0.376111991,0.353272677,0.768550135,0.227006064,-0.455386601,-0.217857486,-0.619434687,0.568271859,0.22618655,0.458768016,-0.22824767,0.25693579,-0.577363422,-0.388308518,-0.01983416,-0.615177914,-0.199315401,-0.065818641,0.276874484,-0.458034826,-0.313535549,-0.574950242,0.089630213,-0.71112055,-0.577902438,0.055145545,-0.401212026,-0.642911018,0.186717076,-0.020184313,-0.296557965,0.003420925,-0.187999581,-0.449712758,-0.036680749,-0.297133072,-0.019422021,0.503818792,0.533976028,0.249052389,-3.955387916,-4.763078487,1.572181277,-4.857517833,-4.740402174,-1.494100342,0.337438582,0.504173972,-0.040019751,1.131507846,1.235428842,1.632364719,0.52013934,2.193683983,0.810760011,2.19871131,-0.081146104,0.822537067,0.372530574,1.51020184,0.378937771,1.456226461,-0.277201028,1.117423972,1.572181277,2.259450487,0.307295184,2.036453463,0.102583063,2.53603382,0.188584686,0.751212662,-0.123209416,0.325227543,1.777121483,1.652744589,0.696618506,1.914721591,0.803677489,0.050045184,0.78164881,1.365265963,0.361801407,2.956691829,-0.307121212,0.443736201,-2.433651786,-3.280930465,-3.20760092,0.472506764,-0.544172619,0.657286255,-0.530092532,0.990728626,-1.767446158,1.762609848,-2.527550866,0.59628842,-1.061362013,-0.841104708,-3.786525974,-0.627505952,0.824449946,2.622608225,-1.396241342,1.730950487,-1.147252435,-2.199705628,2.400949134,2.25389908,-2.273541322,-1.117596222,-5.309138135,-2.541671783,-1.726252656,0.343485242,0.350427391,-0.474100354,-0.265684179,-1.441495868,2.264910272,0.908299882,0.488827627,0.277903188,-0.190734947,-1.508365998,-3.064237308,1.656680047,-4.02570425,-1.183353011,-2.333267414,-0.769511806,1.803213695,-0.775995868,-1.845061983,-1.320995868,-2.973640496,-0.884249115,-0.12388843,-1.331412043,-0.1165366,-0.492798701,-0.403564345,0.411968123,-4.43950059,-3.070195986,-2.481112751,-2.003692444,-2.535973436,-1.753995277,-6.397598583,-6.276961039,-6.806691263,-0.445412043,-1.205806966,-1.876936246,-2.4444451,-2.377151712,-3.931559622,-4.095353601,-5.817439197,-0.952455136,-3.783664699,-4.662417946,-7.049198937,-3.179829988,-0.61205549,-1.666842975,-5.835530106,-4.290636954,-4.047467532,-6.244936246,-4.118581464,-3.903252066,-2.366846979,-2.580848673,-1.143879729,-1.868255223,-2.959112366,-1.343224167,-0.158747036,-0.863801807,0.039430265,-1.646434783,-1.388798984,-0.790624506,-1.167988142,-2.145946358,-1.438697346,-1.265286279,-2.201487295,-0.923390175,-4.763078487,-1.896708639,-1.006600791,-0.800346132,-2.393228684,0.320006211,-1.421938453,-1.16407284,-0.641281197,0.136025974,-2.702204969,-1.720766234,0.135615471,-0.987992095,-3.593483343,-1.2601214,-3.140679842,-7.711974591,-4.561498588,-1.27416996,0.487475438,-1.765915867,-4.873537549,-7.493654997,-3.99991869,-1.58004122,-2.076871259,-1.333679277,-2.996553924,-1.840254658,-4.691305477,-2.781479955,-6.236953698,-7.492177301,-5.095181254,-4.018815359,-8.099400339,-3.834751553,-0.739028233,-1.742640881,-2.500812535,-2.909763411,-5.232447205,-4.691546019,-5.216449464,-5.014309994,982.3564674,927.4593957,1415.097398,662.6880947,673.8401806,972.8875306,4856.357449,4092.36037,5083.46561,459.1725308,478.9775058,679.2116416,1390.86554,1316.299833,1637.016211
