,X1,subject,alcoholic,CP5_F2_match,CP5_F2_nomatch,CP5_F2_obj,CP2_FT8_match,CP2_FT8_nomatch,CP2_FT8_obj,P3_PO2_match,P3_PO2_nomatch,P3_PO2_obj,P4_FT8_match,P4_FT8_nomatch,P4_FT8_obj,AF7_FT8_match,AF7_FT8_nomatch,AF7_FT8_obj,AF7_C1_match,AF7_C1_nomatch,AF7_C1_obj,F5_FC4_match,F5_FC4_nomatch,F5_FC4_obj,F5_CPZ_match,F5_CPZ_nomatch,F5_CPZ_obj,F5_nd_match,F5_nd_nomatch,F5_nd_obj,FC4_C1_match,FC4_C1_nomatch,FC4_C1_obj,F7_C1_match,F7_C1_nomatch,F7_C1_obj,FZ_nd_match,FZ_nd_nomatch,FZ_nd_obj,F3_PZ_match,F3_PZ_nomatch,F3_PZ_obj,F3_P8_match,F3_P8_nomatch,F3_P8_obj,F3_O2_match,F3_O2_nomatch,F3_O2_obj,CZ_P8_match,CZ_P8_nomatch,CZ_P8_obj,C3_P8_match,C3_P8_nomatch,C3_P8_obj,P300M_match,P300M_nomatch,P300M_obj,cond_mean_match,cond_mean_nomatch,cond_mean_obj,1_S1obj,2_S1obj,3_S1obj,4_S1obj,5_S1obj,6_S1obj,7_S1obj,8_S1obj,9_S1obj,10_S1obj,11_S1obj,12_S1obj,13_S1obj,14_S1obj,15_S1obj,16_S1obj,17_S1obj,18_S1obj,19_S1obj,20_S1obj,21_S1obj,22_S1obj,23_S1obj,24_S1obj,25_S1obj,26_S1obj,27_S1obj,28_S1obj,29_S1obj,30_S1obj,31_S1obj,32_S1obj,33_S1obj,34_S1obj,35_S1obj,36_S1obj,37_S1obj,38_S1obj,39_S1obj,40_S1obj,41_S1obj,42_S1obj,43_S1obj,44_S1obj,45_S1obj,46_S1obj,47_S1obj,48_S1obj,49_S1obj,50_S1obj,51_S1obj,52_S1obj,53_S1obj,54_S1obj,55_S1obj,56_S1obj,57_S1obj,58_S1obj,59_S1obj,60_S1obj,61_S1obj,62_S1obj,63_S1obj,64_S1obj,1_S2match,2_S2match,3_S2match,4_S2match,5_S2match,6_S2match,7_S2match,8_S2match,9_S2match,10_S2match,11_S2match,12_S2match,13_S2match,14_S2match,15_S2match,16_S2match,17_S2match,18_S2match,19_S2match,20_S2match,21_S2match,22_S2match,23_S2match,24_S2match,25_S2match,26_S2match,27_S2match,28_S2match,29_S2match,30_S2match,31_S2match,32_S2match,33_S2match,34_S2match,35_S2match,36_S2match,37_S2match,38_S2match,39_S2match,40_S2match,41_S2match,42_S2match,43_S2match,44_S2match,45_S2match,46_S2match,47_S2match,48_S2match,49_S2match,50_S2match,51_S2match,52_S2match,53_S2match,54_S2match,55_S2match,56_S2match,57_S2match,58_S2match,59_S2match,60_S2match,61_S2match,62_S2match,63_S2match,64_S2match,1_S2nomatch,2_S2nomatch,3_S2nomatch,4_S2nomatch,5_S2nomatch,6_S2nomatch,7_S2nomatch,8_S2nomatch,9_S2nomatch,10_S2nomatch,11_S2nomatch,12_S2nomatch,13_S2nomatch,14_S2nomatch,15_S2nomatch,16_S2nomatch,17_S2nomatch,18_S2nomatch,19_S2nomatch,20_S2nomatch,21_S2nomatch,22_S2nomatch,23_S2nomatch,24_S2nomatch,25_S2nomatch,26_S2nomatch,27_S2nomatch,28_S2nomatch,29_S2nomatch,30_S2nomatch,31_S2nomatch,32_S2nomatch,33_S2nomatch,34_S2nomatch,35_S2nomatch,36_S2nomatch,37_S2nomatch,38_S2nomatch,39_S2nomatch,40_S2nomatch,41_S2nomatch,42_S2nomatch,43_S2nomatch,44_S2nomatch,45_S2nomatch,46_S2nomatch,47_S2nomatch,48_S2nomatch,49_S2nomatch,50_S2nomatch,51_S2nomatch,52_S2nomatch,53_S2nomatch,54_S2nomatch,55_S2nomatch,56_S2nomatch,57_S2nomatch,58_S2nomatch,59_S2nomatch,60_S2nomatch,61_S2nomatch,62_S2nomatch,63_S2nomatch,64_S2nomatch
1,0,co2a0000364,TRUE,0.200029974090976,0.211414381722587,0.550771330532916,-0.435512082105379,-0.536245666651688,-0.40490953611543,-0.130692538654597,0.029983191090687,0.3911062957406,-0.30824753300798,-0.086077347635573,-0.348526702081855,-0.168176516994445,0.054572906286239,0.011416246624614,-0.217445649342459,-0.390029777515139,-0.434960387059593,0.370786475646566,0.026288664055392,0.333988335144748,-0.416309816559389,-0.154351414041318,-0.326372646915735,-0.354691554360116,-0.269820548698636,-0.410471438230392,0.285090300099027,0.128058351513669,-0.051709841932078,-0.016799880418959,-0.368475790155441,-0.21761096323122,-0.306759288722124,-0.043361749188206,-0.466811025947045,-0.265465127827506,-0.297739964789428,-0.269776478768471,-0.383573701114801,0.102621770164045,0.099763570975812,-0.485797857441364,-0.284644672072441,-0.102781005412707,0.434052130027877,0.139420501820245,0.295286727374526,0.511846428443888,0.440057481646628,0.453594182781304,-14.1912722462722,-9.4517316017316,9.24946525974024,-15.778111255787,-14.1044283854167,5.10832294921878,-2.35264642857143,-1.79909058441558,-3.0914711038961,-2.30121266233766,-2.01028571428571,-0.028167857142857,0.490983441558442,-0.525002597402597,0.333223376623377,-1.23909707792208,-0.483424350649351,0.260063636363636,1.0207775974026,-0.461082792207792,0.415925649350649,-1.92300357142857,-0.863451623376623,0.907932142857143,9.24946525974026,-1.76070162337662,-1.71356006493506,-1.60175909090909,-1.34534902597403,-1.88625422077922,-1.35182467532468,-2.25092045454545,-1.70293311688312,-0.90748474025974,-0.662142207792208,-0.833426623376623,-0.31860551948052,-1.43768701298701,-0.830788636363636,-1.00022175324675,-3.12396948051948,-2.77471103896104,-2.88566006493506,-1.88549772727273,-1.41204415584416,-1.93635876623377,-3.33394383116883,-2.51503506493506,-2.64965064935065,-0.449867207792208,0.641872402597403,-1.5033775974026,-0.260989285714286,-2.53238051948052,-1.45430909090909,-4.49877045454545,-3.08611720779221,-1.65546038961039,-0.768531493506493,-4.41960194805195,-2.75833603896104,-0.780708441558441,0.748767207792208,-2.18743863636364,-1.67044967532468,-3.00070746753247,-2.26539318181818,-4.38114675324675,-1.45418928571429,-3.02092792207792,-2.21673926073926,-2.66155144855145,-4.70801848151848,-5.90368681318681,-1.67005544455544,-0.032547952047952,-0.46638011988012,-1.8699010989011,-2.44407442557443,-3.4713036963037,-4.14738161838162,-1.56703646353646,-1.53877722277722,-2.66652147852148,-3.0049965034965,-5.10176623376623,-5.14877422577423,-1.11198101898102,-14.1756853146853,-0.549304695304695,-0.856623376623377,-1.12241858141858,-2.55593906093906,-2.42407942057942,-4.41104795204795,-4.2334040959041,-6.37239110889111,-0.183193306693307,-0.605878621378621,-1.05642257742258,-2.72566583416583,-2.04512887112887,-4.41346103896104,0.572941558441559,-4.49358441558442,-5.27728771228771,-4.55156943056943,-4.15992957042957,-6.22268781218781,-0.295133366633367,-8.16985864135864,-8.09613836163836,-7.83891808191808,-3.83091108891109,-3.66243556443556,-4.77566133866134,-4.4980004995005,-6.00447852147852,-6.13527872127872,-8.42160639360639,-9.2666988011988,-5.79476373626374,-5.4770964035964,-8.35273426573427,-8.09039210789211,-5.17850999000999,-2.90463286713287,-5.77222977022977,-6.89514485514485,-7.1651983016983,-7.95404895104895,-8.48882967032967,-6.99593156843157,-4.31440759240759,0.81626283240569,1.22240507111936,-2.40182622139765,-1.26400123685838,1.13325850340136,-1.06468521954236,0.738150896722325,-2.5235974025974,0.382947433518862,-3.83517316017316,-1.48232776747062,-2.4479876314162,-0.993858379715523,-3.52279777365492,-2.21204205318491,-5.35638095238095,-3.65216017316017,-1.4520853432282,-9.4517316017316,0.617946815089672,1.94395547309833,-0.113159554730983,1.57426716141002,-1.6297619047619,0.330924551638837,-2.87161100803958,-1.99181508967223,-0.177882498453927,1.74022634508349,-1.41568089053803,1.1009146567718,-2.12532405689549,-0.553760049474335,1.28407730364873,-1.49511317254174,-1.02251700680272,-1.16956462585034,-3.90188373531231,-2.91257390228819,1.73579591836735,-8.91853555967842,-8.80157513914657,-8.77444588744589,-4.8519696969697,-3.97494867037724,-5.77258132343847,-4.65340197897341,-6.90440630797774,-6.67855658627087,-8.96672108843537,-9.08952628324057,-6.7062071737786,-6.40086827458256,-9.16791651205937,-9.0568843537415,-6.23630179344465,-3.32596103896104,-5.85078787878788,-4.35907482993197,-7.29705875077304,-6.65857019171305,-4.84056277056277,-5.28086209029066,-1.51597773654916
2,1,co2a0000365,TRUE,0.521817011670142,0.272874674899669,0.457084883434863,-0.62600617388566,-0.469507233877095,-0.584002821959874,0.689150866565858,0.749709190657101,0.601833131180729,-0.546903248163223,-0.248023921005021,-0.618077332101002,0.447615617898072,0.435533758728997,0.487478243536379,-0.35118175838415,-0.543823291682029,-0.357850286717,0.341578632800709,0.233268111114838,0.63368044746677,-0.410623004384757,-0.609027506616312,-0.362811621599748,-0.559236248026932,-0.373830252795352,-0.605347371214443,-0.134712769756056,-0.014200717876097,0.001111186471438,-0.378380016955149,-0.420486992001132,0.042893041674308,-0.243618554929668,-0.328720881295599,-0.420627589739944,-0.235226853474739,-0.402395523147716,-0.371311930241092,0.00211209685384,-0.036945810928219,-0.02512573337057,-0.218649386868175,-0.267971242138288,-0.059935355797457,0.283078003224714,-0.064891388392492,0.147295059520451,0.758491531225067,0.14372076061785,0.474611332743939,-10.0469911452184,-6.46611334120425,-1.53276729393056,-8.42847745028408,-8.51771981534087,-1.23821707589286,0.022651470978002,-0.985918367346939,1.17261648555526,-2.25641028359396,-0.383520805724887,0.415886827458256,-0.458301616750596,0.383061224489796,-0.98623058574079,-0.287823482639809,-1.55584574609064,0.450077922077922,0.1030270341903,0.162808640339253,-0.611979856877816,-0.540685396236417,-1.40038165915717,0.507799628942486,-1.53276729393056,-0.98262788232176,-1.10675006626027,0.210351444473894,-3.61861675059634,0.788502252849192,-2.43060985952823,-1.03185396236417,-3.37983912006361,-0.035621256294726,-0.892640604293665,0.362907765703684,-1.83490379008746,0.185842035515505,-1.81979141266896,-0.333655181553141,0.200518950437318,-1.16654439438113,-0.918769679300292,-0.725791942751126,-2.71855817651736,-0.544782401272197,-3.9733456135701,-4.15634216803605,-4.28819586535913,0.035684866154254,-0.557567717996289,-0.460997614630268,-0.930650675854758,-1.73797535117943,-1.67310548635038,-2.54329472568248,-3.01102305857408,-1.46653882851842,-1.07722316459051,-3.49920673204347,-3.6682361516035,-1.33709037900875,0.41779061754572,-1.25179750861384,-1.4753172541744,-1.34308189769414,-3.75921176782401,-1.6409501722767,0.649480254439438,0.1871123774185,-4.28947915242652,-3.78672658920027,-6.01704511278196,-6.89853793574846,-4.47483185235817,-0.477343130553657,0.380284347231716,-1.64224470266576,0.234815447710185,-3.70966302118934,-2.54046138072454,-0.332896103896104,0.610326042378674,-1.50369104579631,-0.895580997949419,-4.25542036910458,-3.10921394395079,0.92143062200957,-11.5655194805195,-5.24416199589884,-2.24899111414901,-2.92492412850308,-0.775570745044429,-4.11068284347232,-4.67213875598086,-5.06217771701982,-7.34621257689679,-1.30976691729323,-0.857745044429255,-1.93784894053315,-9.07203827751196,-3.67942993848257,-4.52444907723855,-0.968023239917977,-5.02263157894737,-5.43813328776487,-5.70408954203691,-3.20426042378674,-7.36556801093643,-2.57541558441558,-7.4087963089542,-8.19982228298018,-8.11016336295284,-0.766717703349282,-0.215704716336296,-1.97919412166781,-2.05624538619275,-6.86051879699248,-3.77535133287765,-7.14070950102529,-7.1503034859877,-3.11089200273411,-7.64277238550923,-6.82273752563226,-8.51122146274778,-2.81693096377307,-0.337408065618592,-5.2815044429255,-6.3438995215311,-6.56873547505126,-9.2864046479836,-8.90111414900889,-8.37133902939166,-4.91595830485304,-3.31425560802834,-2.37121487603306,-2.82344155844156,-2.77151121605667,-2.35672314049587,-0.499283943329398,0.457719598583235,-1.00762868949233,0.209712514757969,-2.48031523022432,-0.934002361275088,-0.114371900826446,0.37305253837072,-0.945537190082645,-0.1580360094451,-2.43260094451004,-1.19344805194805,0.089835301062574,-6.46611334120425,-0.911116883116883,-1.66517178276269,-2.08031818181818,-4.78825560802834,-2.24206021251476,-1.78971900826446,-7.48125796930342,-5.49118831168831,-1.49337485242031,-0.472252656434475,-1.51705962219599,0.66073199527745,-2.21749822904368,-0.915937426210154,-0.754970484061393,-5.95202066115702,-3.78942148760331,-3.31208146399055,-4.76541971664699,-2.64040613931523,-2.03650649350649,-5.16832054309327,-5.6493305785124,-5.53785891381346,-0.356927981109799,-4.25317709563164,-1.24850708382527,-1.69903069657615,-3.00928099173554,-2.61804722550177,-3.90897107438017,-4.21591676505313,-2.4992945690673,-7.51137603305785,-4.64376623376623,-5.33936186540732,-2.16778217237308,0.041340023612751,-5.04821428571429,-3.23135714285714,-4.5398412042503,-4.84981877213695,-5.0329386068477,-5.76413577331759,-5.89374911452184
3,2,co2a0000368,TRUE,0.281700744032771,0.562318006046469,0.126598736272793,-0.527074835051157,-0.493690781352145,-0.538776249402896,0.813730245794942,0.736933328496015,0.870076725264242,-0.472805207931145,-0.359966104512678,-0.31061240397014,0.638932372180933,0.478172250425077,0.526604789175195,-0.646326510016283,-0.646981519620369,-0.697896525662874,-0.05001985955431,0.137913516759366,0.260522409707453,-0.593201291025128,-0.439165334087686,-0.417510572657621,-0.48530426779808,-0.415542693564124,-0.452747591145263,-0.074093280372062,-0.153492113201579,-0.328817634118602,-0.367095539262527,-0.437983804858763,-0.385186045736255,-0.440992664956392,-0.39244738733746,-0.500811638916092,0.120786071981899,-0.178747701655968,-0.415712155619242,-0.00465624555821,0.00931237804509,-0.284044594583246,-0.183094465806587,-0.393336203673762,-0.435021093356463,0.367548100790626,0.058413421090981,-0.21739056715645,0.506783912534738,0.429273730405687,-0.068739017459846,-8.25613914656772,-9.13271304885589,1.05418814518814,-9.59718777901787,-12.9802356770833,-0.784673177083316,-2.32147752247752,-2.08335464535465,-2.37894738594739,-2.12537828837829,-1.12921944721945,-1.90957808857809,-1.48799134199134,-1.5477952047952,-1.5642017982018,-1.23935531135531,-1.41012021312021,-2.00498901098901,-1.88656043956044,-1.16481351981352,-1.59039094239094,-1.77693406593407,-1.44081918081918,-1.81753712953713,1.05418814518815,-1.53972127872128,-1.65310922410922,-1.13265800865801,-1.73877122877123,-1.37700899100899,-1.28469597069597,-1.37041724941725,-1.53630003330003,-2.10850815850816,-1.85810223110223,-0.916949050949051,-1.54877589077589,-1.24183183483184,-0.97391242091242,-1.63001864801865,-2.86550216450216,-2.92779054279054,-3.00071428571429,-0.771037629037629,-1.04830769230769,-2.00227006327006,-1.25957942057942,-2.31650649350649,-1.72059274059274,-1.70862670662671,-1.7157992007992,-1.85264035964036,-2.13023043623044,-1.57049317349317,-2.26599200799201,-2.13134532134532,-2.62498667998668,-1.5083966033966,-2.10075091575092,-1.70801698301698,-2.32803663003663,-0.64116983016983,-1.86000699300699,-0.955148851148851,-0.69447718947719,-1.1462331002331,-1.58680486180486,-3.54244155844156,0.486563436563436,-2.65036763236763,-6.01689517625232,-5.13522170686456,-7.67641187384045,-7.43550834879406,-3.44738218923933,-2.82768645640074,-1.7752745825603,-3.96094434137291,-3.13257513914657,-5.40805009276438,-3.59765491651206,-3.61118089053803,-2.89808998144712,-5.24362894248609,-2.41988775510204,-5.28078942486085,-4.11916975881262,-2.05696011131725,-8.25613914656772,-4.90401391465677,-3.87484972170686,-6.51609925788497,-4.59886549165121,-6.19963543599258,-5.12871428571429,-8.81199536178108,-7.24511966604824,-3.4101706864564,-2.41410575139147,-4.30312244897959,-2.71703153988868,-6.50890538033395,-4.14401669758813,-2.446853432282,-8.28092300556586,-8.02902968460111,-7.84081632653061,-7.62166604823748,-5.64054638218924,-4.57814378478664,-4.943573283859,-6.60331910946197,-5.91515213358071,-2.55651020408163,-3.20126716141002,-4.51867439703154,-3.91815584415584,-4.91997217068646,-3.81265677179963,-7.64506864564007,-6.50215306122449,-4.801353432282,-4.79647124304267,-6.16624304267161,-5.70402226345083,-2.74195176252319,-3.08125788497217,-7.63533302411874,-4.47802504638219,-6.91074304267162,-4.92495454545455,-11.316780148423,-10.2963385899814,-7.85627365491651,-3.35509545454545,-3.32007532467532,-4.14635584415584,-3.87848636363636,-2.14982337662338,-1.91815974025974,-1.85856753246753,-2.8107487012987,-2.66799675324675,-3.81552532467532,-2.79433896103896,-2.30940844155844,-2.23777207792208,-2.69591688311688,-3.19232402597403,-4.3418961038961,-4.03213311688312,-1.65782207792208,-9.58708311688312,-2.4901538961039,-2.41865844155844,-3.34726688311688,-2.90598831168831,-3.16016948051948,-2.83983831168831,-4.83461493506494,-4.49652142857143,-3.00261298701299,-2.57486623376623,-2.06997857142857,-2.70313051948052,-4.28466298701299,-3.35411883116883,-2.1932974025974,-4.10284675324675,-4.32824090909091,-3.83582077922078,-4.6761461038961,-3.71797012987013,-2.99604220779221,-6.68721883116883,-7.33670324675325,-6.54370714285714,-3.36238701298701,-3.40527597402597,-3.9474461038961,-4.12373701298701,-4.26212857142857,-5.60955584415584,-6.14275714285714,-6.52355844155844,-4.80548246753247,-5.85852597402597,-7.21743441558442,-8.04781753246753,-5.75210649350649,-3.03713571428571,-5.23893896103896,-4.86811818181818,-5.44085324675325,-4.72978831168831,-7.4278038961039,-6.74029285714286,-3.73511363636364
4,3,co2a0000369,TRUE,0.857279617880787,0.706349232554938,0.707259697997149,-0.848527008352301,-0.712812118738112,-0.759785794185494,0.619966815897124,0.652719855557391,0.804274090204752,-0.691791459706513,-0.613592208514973,-0.632684076927611,0.991763905879323,0.981736494424739,0.9919963526041,-0.752710688857202,-0.713432966748505,-0.681256332449122,0.338701844237588,0.330819811747421,0.596909609106133,-0.692686138624235,-0.672552187399317,-0.661477436982774,-0.797908401776616,-0.710084668430189,-0.733342282001938,-0.214897408872192,-0.465308285262508,-0.392701470953322,-0.552068385021605,-0.429733033172013,-0.658206557332977,-0.784812775407043,-0.690836196510194,-0.727416859583927,-0.408837063990331,-0.398869845764868,-0.648285487084952,-0.296230154091627,-0.381959849096906,-0.419266234307924,-0.261394209850226,-0.587051476940974,-0.60875996734404,0.45116598130104,-0.083992574981885,-0.160522154101567,0.643504287318613,0.382490323446622,0.172354739247843,-13.8802298701299,-11.5394324675325,-4.20736296462157,-6.66454986979161,-7.37425859374999,-4.02556566540948,1.09377048813256,1.45562203313927,1.37981549484998,1.53915830721003,1.04737931034483,0.761584191670398,0.622175548589342,1.30256739811912,1.50905978504254,1.32904590237349,1.6944894760412,1.82043058665473,2.05813479623824,2.18172257053292,2.39501074787282,2.14504164800717,2.55389364084192,1.27281347962382,-4.20736296462159,0.475174876847291,0.875226824899239,0.207513658755038,1.67867062248097,0.178642857142857,1.73130698611733,0.432641737572772,1.96589498432602,0.304630989699955,0.609451410658307,0.666235333631885,1.17997447380206,0.775570756829378,1.50779220779221,-0.010450515002239,1.58124988804299,2.26714912673533,2.11850694133453,0.337597178683386,0.265356918943126,0.558017465293327,3.69496126287506,3.20677071204657,3.14529086430811,3.90087639946261,3.93386520376176,3.62408575906852,3.89505754590237,3.29380340349306,3.95899283475146,2.79253873712494,3.52640774742499,4.67692610837439,4.23844290192566,3.69183900582176,3.78119167039857,4.63789005821764,3.38992095835199,0.844717420510524,1.06629243170622,1.42776466636812,2.42039879086431,1.79747044334975,-0.498095611285266,3.68332870577698,-5.93146484549933,-6.27461128526646,-7.82881459919391,-6.52042185400806,-6.07639587998209,-0.280160322436185,-0.395991491267353,-1.18775772503359,-1.2892946708464,-3.74179579041648,-2.51830855351545,0.978678459471563,1.03709225257501,-0.434495297805643,0.297874160322436,-2.5187223466189,-1.5599973130318,1.72578996865204,-13.3827017465293,-4.47962830273175,-5.21262561576355,-4.53082624272279,-6.06203448275862,-6.38527810120914,-6.27080161218092,-8.13624451410658,-8.84184370801612,-2.15755441110613,-2.47614464845499,-3.10443036274071,-3.35089296909987,-4.741789520824,-5.06137975817286,-2.33041244961935,-7.93486475593372,-7.49421854008061,-7.44544379758173,-7.22603537841469,-7.31332243618451,-4.34094491715181,-4.94998208687864,-4.97999417823556,-5.25477205553068,0.63915539632781,1.13229780564263,-0.38902552619794,0.536665472458576,-2.08530900134348,-0.981813703537842,-5.28039901477833,-3.6554276757725,-1.4583855799373,-0.778246753246753,-4.94710076130766,-4.31015987460815,-0.766012091356919,2.02567039856695,-6.41327407075683,-5.43997089117779,-5.70091401701747,-4.10249440214957,-6.86619614867891,-12.0998307210031,-4.97215718763995,-4.5509975024975,-4.56998251748252,-6.16943706293706,-4.15223476523477,-4.75103996003996,-0.763601398601399,0.620275224775225,-1.31353696303696,0.577934565434565,-3.01214535464535,-0.78913986013986,1.02480669330669,1.95267532467532,-0.058023976023976,1.13019280719281,-2.00369380619381,-0.681105394605395,1.71447502497503,-10.6288421578422,-3.31731568431568,-3.50684115884116,-4.2604995004995,-3.46416283716284,-5.12885314685315,-3.65236513486513,-6.49980769230769,-6.04487962037962,-2.05452647352647,-1.0884030969031,-3.33641258741259,-1.2411963036963,-4.03756243756244,-2.91553296703297,-1.69024525474525,-6.57560989010989,-5.78183716283716,-5.35423476523477,-6.02884215784216,-5.47326273726274,-3.29103446553447,-3.09119030969031,-3.43629170829171,-3.61790559440559,1.66252047952048,1.98436313686314,0.390843656343656,1.30606843156843,-0.852114885114885,-0.3027002997003,-3.10211938061938,-2.30287812187812,0.057531968031968,-1.09063936063936,-2.69720729270729,-2.77061038961039,0.397124375624375,2.08362637362637,-5.44202647352647,-3.82577222777223,-5.10625574425574,-2.60474475524475,-6.66604295704296,-8.96222027972028,-3.07582317682318
5,4,co2a0000370,TRUE,0.719605841790182,0.812764018437399,-0.049233313255232,-0.472911681909301,-0.489829007559043,-0.607273372707335,0.632839210246412,0.22289861602346,0.658522023075635,-0.400183051658089,-0.398420418979086,-0.55311404246253,0.382970718294981,0.265219007556489,0.381827392079222,-0.435091086963283,-0.282405586568327,-0.57312218750401,0.489789769749818,0.419691603527196,0.451528321505654,-0.355899627288727,-0.282276807572836,-0.536070192089809,-0.363979736458872,-0.425034302973233,-0.558759475639298,0.181719768514519,0.068515553474685,-0.125603975296307,-0.587344938100589,-0.433564185487046,-0.617821060007921,-0.079915031702741,-0.334632221240514,-0.544414400258682,-0.586788965866821,-0.646367127979385,-0.744044738405573,-0.243754618642361,-0.01031286652132,-0.799760965498886,-0.368631051964258,-0.138329783007186,-0.788923025727293,-0.108541172738254,-0.04555244369826,0.343789066169475,0.202135985578478,0.360704730788483,-0.124192268139048,-13.0990228392298,-7.22506536796537,-0.833637023992957,-6.80252397629312,-4.256625,0.271039989406781,0.790427911071979,0.88272661237068,1.85284525643848,2.21250165089148,0.690526964560863,0.39824345146379,-0.028879815100154,0.398017829627999,-0.089482720669161,-0.087054369359454,-0.301431212854942,0.977524323134493,0.221374422187982,0.7777307946291,-0.277040721989874,0.003572309046885,-0.710467532467532,0.705640105657055,-0.833637023992956,-0.238259960378604,-0.205682588597843,-0.059309927360775,0.080415584415584,-0.154367378384328,0.30843429451904,0.668683248954435,0.679124807395994,-0.489464450803434,-0.501873211534228,-0.257003081664099,-0.437295179396874,-0.340797710763813,-0.288097952894563,-0.82874025974026,2.15256372441118,2.64514836011446,2.18556922738279,-0.18420294959278,-0.415276909531147,-0.549506053268765,-2.49916861104997,-4.32105018710104,-3.57997512656835,0.784667620515078,-0.197564825005503,0.633077041602465,-1.06405943209333,-0.160490424829408,-1.9092040501871,-1.81377569887739,-2.67674158045344,0.068692273827867,-2.91696390050627,-1.98715958617654,-4.52258397534669,-0.748454325335681,0.711498789346247,-0.853540171692714,-0.92163042042703,-1.21080167290337,-1.34454523442659,3.71463174114022,-0.096477217697557,-2.49443979749064,-1.85684276437848,-2.15349350649351,-3.81571474953618,-5.30917115027829,-2.15334230055659,-0.066906771799629,-0.655045454545455,-0.351379406307978,-1.78023562152134,-2.46767764378479,-4.7738905380334,1.00375742115028,-0.868546382189239,0.282338589981447,-1.71926623376623,-1.95062569573284,-4.82305844155844,0.571004174397031,-12.9680783858998,-1.3268599257885,-1.54297031539889,-1.232323283859,-2.35934461966605,-1.22305148423006,-3.1390853432282,-5.15593552875696,-7.0367680890538,-1.38506400742115,-1.11088589981447,-1.60809601113173,-1.78301113172542,-3.16175278293135,-5.00208998144712,-1.12095686456401,-3.99680194805195,-4.04922820037106,-4.14620779220779,-5.96890352504638,-8.72395454545454,-1.38846150278293,-5.30244944341373,-7.91394851576994,-6.39008905380334,0.50844573283859,-0.767452690166976,-0.095741651205937,-2.46811270871985,-2.21206261595547,-4.88543089053803,-5.23347031539889,-8.99301530612245,-1.21926020408163,-3.8679392393321,-4.52187012987013,-8.82019944341373,-1.55729081632653,0.571745361781076,-6.02759972170687,-9.36976113172542,-5.12130658627087,-9.05507189239332,-8.37828385899815,-11.4327360853432,-5.33966790352505,1.44867084639498,0.410444693237797,0.940120465741156,-0.981915808329602,0.80945723242275,1.12638692342141,-0.709190774742499,1.6776408419167,-1.37785624720107,0.589717868338558,-2.65142722794447,1.38897089117779,0.138114196148679,1.47296059113301,-1.01119301388267,0.0834894760412,-2.70799238692342,0.487218092252575,-7.21783833407971,1.26050470219436,-0.089670846394984,1.98283699059561,-0.117446036721899,1.85964173757277,-1.18841737572772,0.017257948947604,-2.86474921630094,0.685394984326019,-0.898236005373936,1.37387908643081,-1.35892118226601,0.570768920734438,-2.87966995073892,-0.31935512763099,0.884553963278101,-0.270184057321988,0.698712046574116,-1.51047201074787,-4.43557545902373,0.34835288849082,-4.66993909538737,-6.39743752798925,-5.66130452306314,0.164294223018361,-0.628083743842365,0.560104791759964,-1.49766950291088,-0.940971786833856,-3.27216256157635,-2.30452664576802,-5.9238750559785,-1.42445633676668,-3.45951007613077,-3.64065562024183,-7.12879668607255,-2.02264800716525,-0.026845947156292,-1.67583475145544,-4.63587057769817,-1.88121361397223,-5.83269055082848,-2.45385893416928,-4.67626914464846,-4.71167935512763
6,5,co2a0000371,TRUE,0.283799043692186,0.409034048807693,0.46398064040161,-0.382757607725585,-0.445538116827879,-0.590627796070567,0.364322883097951,0.298331712418436,0.391598746543604,-0.088963752396895,0.169519442350507,-0.84821104807772,0.871393741222677,0.831340911332253,0.741534475263285,-0.693778985181595,-0.615581017984375,-0.531392577950221,0.672558285887516,0.710056611474919,0.439917999623218,0.292487505855198,0.146147050380871,-0.483145523675777,-0.296790721807776,-0.124826895079216,-0.812106979185987,-0.387379285555465,0.004414601734849,-0.423421700210916,-0.547926843732574,-0.527009260538283,-0.497667746954257,-0.317236899516058,-0.08324181125434,-0.720032486508148,-0.397012673269674,-0.331847198019421,-0.492524120883307,-0.307848103118269,-0.028041242550716,-0.086921081176843,-0.275543198108818,0.20636000004854,-0.473767506343193,0.194992112132029,0.196525107128584,-0.212897052853494,0.215489518391572,0.435166657682156,0.104337548624039,-9.63375896103897,-8.94170918367347,7.91578191619702,-6.47559890624999,-7.29408900669644,5.44334212853776,2.72734207302132,2.29432982112227,4.11523278608184,3.72142097525116,2.1210012251899,-0.006251899044352,0.401630972800784,0.967779465817202,1.35488581230091,2.06895932369517,2.70354153393776,-0.414581720166626,0.021550600343053,0.233997794658172,1.24464690026954,1.1387576574369,1.74003651065915,-0.746842195540309,7.91578191619701,1.35586400392061,1.35705905415339,2.17324895858858,1.86922420975251,3.1937115902965,2.96148051948052,4.23441484930164,4.18605905415339,0.425577064444989,0.693512864493997,1.51018769909336,1.62046655231561,2.67888875275668,3.07853908355795,0.022707914726783,0.729484195050233,3.6616397941681,3.6306755697133,4.04773266356285,3.89123033570203,1.16976721391816,0.746079882381769,1.17179686351384,0.199957118353345,-1.21750012251899,-1.29205268316589,-0.471909335947072,0.385772359715756,0.377530752266601,1.09848444008821,1.37085542759128,1.57474638568978,-0.447664788042147,0.014981377113453,0.816459691252144,0.608205096790002,-0.477885567262926,-0.926131585395736,3.54207473658417,3.31260965449645,2.55263905905415,2.20643396226415,6.44210144572409,5.67951948051948,3.82433472188189,-1.85828571428571,-1.64571220779221,-3.37770597402597,-3.70383116883117,-1.96385194805195,-0.240538181818182,-0.441382857142857,-0.991243116883117,-1.56764311688312,-2.58020415584416,-3.63643272727273,-1.74509454545455,-1.5661412987013,-2.3745012987013,-3.56532519480519,-3.79566805194805,-5.39769558441559,-1.55512675324675,-9.63375896103896,-0.847584415584416,-0.997201558441558,-1.15000363636364,-1.3817387012987,-2.0251361038961,-2.55134493506493,-3.37470025974026,-4.24940051948052,-0.171918441558442,-0.68700987012987,-1.14307532467532,-1.5027387012987,-2.10251532467532,-3.06556103896104,0.063971948051948,-0.529117402597403,-3.43826493506493,-3.23228623376623,-3.54169454545455,-4.93327012987013,-0.837455584415584,-9.04031948051948,-10.4147797402597,-9.75970285714286,-4.59003012987013,-3.74546077922078,-4.41605766233766,-5.8652561038961,-5.57550857142857,-6.89816883116883,-7.14582597402597,-9.22935792207792,-6.4583651948052,-7.76403168831169,-8.69754077922078,-10.4322664935065,-6.6977812987013,-4.38639116883117,-4.20539324675325,-5.73560467532468,-5.22177246753247,-7.52386597402597,-6.53051428571428,-7.82224623376623,-3.21865714285714,-2.31613265306122,-1.36560899814471,-4.01995408163265,-2.5880245825603,-2.22464888682746,-1.39126623376623,0.335810760667904,-2.65136641929499,-0.184643784786642,-4.10167161410019,-3.0696586270872,-2.17530241187384,-1.03695593692022,-2.42518460111317,-2.64105009276438,-4.58823051948052,-4.3661586270872,-1.87346428571429,-8.94170918367347,-2.02555009276438,-0.655442022263451,-2.86749304267161,-0.507326994434137,-3.83951994434137,-1.68652922077922,-4.82028246753247,-3.91834461966605,-1.38611178107607,0.021182745825603,-3.42008209647495,-0.170581632653061,-3.95911502782931,-2.32097217068646,-0.412114100185529,-0.68440306122449,-2.17804545454545,-2.61475881261596,-5.46803571428571,-4.93702551020408,-1.37035204081633,-8.91047402597403,-9.98616929499072,-10.1607425788497,-4.74303756957328,-4.21171011131725,-3.93870871985158,-4.96126066790353,-5.69151252319109,-5.98862662337662,-7.45317346938776,-8.60350788497217,-6.05378107606679,-7.08137337662338,-8.82738682745826,-9.78486038961039,-6.99442578849722,-4.6883719851577,-5.88026994434137,-5.87860296846011,-6.12981493506493,-7.14678988868275,-4.02531864564007,-8.51614888682746,-3.12407421150278
7,6,co2a0000372,TRUE,0.689126898714995,0.798493418488182,0.650622478172983,-0.781201102397221,-0.361923546556035,-0.341136905837969,0.463831867659929,0.527162626186212,0.800432343113382,-0.68717849356791,-0.167501687874288,-0.01638031682036,0.747708929829102,0.659863623644418,0.590138956883924,-0.592420295822856,-0.469847416221075,-0.534444515140401,0.67263659120165,0.651465059509283,0.560663430972293,-0.72700445969688,-0.169378813443982,-0.163765534504051,-0.745985562941715,-0.183266449406677,-0.201807357404854,0.609160148508551,0.159767606902528,0.007832432285045,-0.569182475030421,-0.622126565382114,-0.644096051648683,-0.6070697509216,-0.125755325123152,-0.074083149978403,-0.478084269219303,0.029653942221636,-0.360102480816616,-0.343663431532692,0.151089029400774,0.057913133257954,-0.289656038373513,0.094603666757973,-0.244432550126234,0.384259939504089,0.055906250943657,-0.563854228315781,0.030310968138911,0.522848344479178,0.247439867155021,-8.55093909538737,-3.58152619793999,1.15736386420597,-5.01441918103447,-2.43103151939656,3.11889268092104,3.64604989747095,3.66256664388243,3.61774960127592,4.27287947140579,3.30371041239462,0.39831989063568,0.23501982228298,0.438128730918205,0.379587605377079,0.52137047163363,0.150293688767373,0.296570745044429,-0.026176349965824,0.437256094782411,-0.05547026657553,0.232817498291182,-0.426884028252449,0.025619047619048,1.15736386420597,2.27696126680337,2.39038915470494,2.23449783549784,2.60206037821827,2.79038824333561,2.63163818637503,2.38839325586694,3.59744611528822,1.06688152198679,0.982357028935976,0.986046024151287,1.3025340624288,1.0788368648895,1.64745181134655,0.92038300296195,4.29973661426293,4.52325267714741,4.67965299612668,0.853622465254044,0.752092048302575,2.24107860560492,0.090949419002051,-1.41608339029392,-0.813804966962861,0.373681932102985,-0.263575074048758,0.53188334472545,-0.342612668033721,0.274174982911825,-1.09379539758487,0.027563681932103,-1.78193711551606,0.456158350421508,-0.769606060606061,0.156675096832992,-2.82214194577352,0.21668671679198,0.546235361130098,0.23234996582365,-0.248389838231944,-0.163274094326726,-0.984599908863067,6.86812736386421,3.21191114149009,0.062652768284347,-1.35105866547246,-2.23231616659203,-2.7804894760412,-1.58094223018361,-1.73477787729512,0.776610837438424,-0.746464397671294,0.558332288401254,-1.26598611733095,-0.339883564711151,-1.92501880877743,1.30236901030004,-2.32870577698512E-05,1.16535602328706,-0.994482758620689,0.280454545454546,-1.95960143304971,0.895064039408867,-8.55093909538737,-0.87553381101657,-0.873856247201075,-0.746462158531124,-0.98577698163905,-0.854988804299149,-2.39939005821764,-3.10580877742947,-3.00458575906852,-0.370301836094939,-0.73946171070309,0.04361038961039,-0.961065382892969,-0.822938647559337,-1.35332557098074,-0.614755485893417,-4.01525884460367,-3.15204881325571,-3.24229511867443,-2.08272055530676,-2.77040483654277,-0.928934169278997,-2.16877832512315,-3.95807881773399,-2.8255288849082,0.708082848186296,-0.33666144200627,1.02825302283923,-0.871023734885804,0.272243618450515,-2.54228123600537,-1.12266233766234,-3.94582355575459,0.05148275862069,-1.66795118674429,-1.45939005821764,-5.4162960143305,0.290778772951187,1.31600313479624,-1.62765875503807,-3.01689117778773,-1.55843752798925,-3.37665069413345,-4.48441648007165,-5.89022749664129,-2.1957657859382,-1.55227944469324,0.134502910882221,-2.1505329153605,1.37689117778773,-0.622391401701746,-0.685326466636811,0.600657411553963,-1.14828257948948,0.771288401253918,-1.58748365427676,0.600464845499328,-0.113335423197492,0.814298701298701,-0.590171965965069,0.917474697716077,-0.662919390953874,0.260784594715629,0.242631885356023,-3.58152619793999,-1.06621137483206,-0.223520376175549,-1.09218719211823,0.557467980295566,-1.89521809225258,0.555431258396776,-3.15327004030452,0.324026869682042,-1.18550380653829,0.139588893864756,-1.65762875055979,0.821999104343932,-2.14353694581281,0.741752798925213,-0.606343036274071,-1.49460635915808,0.034294223018361,-0.53633407971339,-3.10366144200627,0.321910882221227,-0.639369458128079,-1.07458262427228,-1.94964666368115,-1.2770223914017,0.755009852216749,0.818172861621137,0.339912225705329,0.485831168831169,-0.511913569189431,-0.607171070309001,-1.30902686968204,-1.769657859382,0.433260188087774,0.104785938199731,-0.713912225705329,-2.9004881325571,0.227223018360949,0.72533184057322,-2.41788983430363,-0.051442454097627,-1.84525481415137,-0.853607702642185,-0.728702642185401,-3.37955709807434,-1.09800089565607
8,7,co2a0000375,TRUE,0.669188031807957,0.617008337568809,0.770184002780004,-0.509460334154616,-0.297450473069806,-0.749424192340705,0.477117003071721,0.329326567525168,0.709126572974652,-0.377000814828878,-0.209849191157538,-0.598286990346548,0.805770042162109,0.629064995618249,0.792190875334121,-0.601002035459105,-0.082477542841778,-0.733804663013551,0.453560555957255,0.030261142885123,0.520435452074205,-0.187666024470351,-0.303210151007791,-0.571552204367117,-0.345388151455261,-0.275346477170618,-0.645791124912002,0.028465174955594,-0.406568592935519,-0.005546255670495,-0.444978916834932,0.126267275228902,-0.698357112389079,-0.54325190775135,-0.292600218543632,-0.48315049120949,-0.064629652620864,-0.176964520746279,-0.3242160610048,-0.122123820187123,-0.262636494145708,-0.03780218398174,-0.141606409635591,-0.232873049980189,-0.166358549861383,-0.24612056485596,-0.04444412043224,0.253834014610595,0.402036789352245,0.505814381931677,0.708392353126801,-7.52037337662337,-4.42647048406139,-1.50541891441891,-9.10650227864584,-9.56006764914775,-3.40027834535257,-2.81862304362304,-3.77327539127539,-3.27635298035298,-2.22644988344988,-2.92372061272061,0.645934065934066,0.79080685980686,0.673934731934732,0.287485847485847,0.461264069264069,-1.06977722277722,1.46502064602065,1.4082624042624,1.38447885447885,0.808291708291708,1.10995038295038,-0.220504162504162,1.30578954378954,-1.50541891441891,-2.24882917082917,-1.70517316017316,-2.02508258408258,-3.84584215784216,-1.91952181152181,-3.15936263736264,-1.48489144189144,-6.43245021645022,-0.917264735264735,-0.770516816516817,-0.84888677988678,-1.65411521811522,-0.906312687312687,-1.46528937728938,-0.859106893106893,-5.22611088911089,-5.68921545121545,-5.27907758907759,-0.007333999333999,-2.49736030636031,-1.9532350982351,-0.127088911088911,-0.602431235431235,-0.243016983016983,1.72370729270729,2.09025974025974,1.29182783882784,1.12212654012654,0.963614385614386,0.094760905760906,0.254005328005328,-0.746115218115218,0.867013986013986,1.93146853146853,-0.023136863136863,-0.74432400932401,1.00445454545455,1.66122244422244,0.57590342990343,-2.00431901431901,0.155934398934399,-1.35137296037296,-7.23357509157509,-0.972885114885115,-0.162230769230769,-4.38776677489178,-3.74323701298701,-13.0315963203463,-9.47604383116883,-4.16897673160173,0.044082792207792,0.153741341991342,-0.826397727272727,-0.880946428571429,-3.46353300865801,-2.10933441558442,0.846184523809524,0.974032467532468,0.043378787878788,-0.602167748917749,-2.64272348484848,-2.48194967532468,0.994031926406927,-7.52037337662338,-2.48964448051948,-2.3940183982684,-2.94690043290043,-3.86664664502165,-7.29912175324675,-4.60675162337662,-9.2381130952381,-10.971724025974,-1.13673268398268,-1.68841396103896,-2.42259253246753,-2.12310714285714,-3.47647781385281,-4.76474458874459,-1.12028517316017,-5.08242640692641,-5.04438257575758,-5.03090909090909,-6.22464285714286,-4.57382251082251,-1.98246645021645,-6.3747683982684,-6.64373376623377,-6.32651677489178,0.658738636363636,-1.13870346320346,-0.202800324675325,-1.2132987012987,-2.21266233766234,-3.49999458874459,-5.0679816017316,-6.04393885281385,-2.84006439393939,-4.35636796536797,-5.42884253246753,-7.07536093073593,-2.22800432900433,0.490477813852814,-5.45556385281385,-4.55800432900433,-4.81327056277056,-5.40308441558442,-5.88732088744589,-8.72595508658009,-6.38549567099567,-3.52971959858323,-2.61170188902007,-3.96067709563164,1.28351889020071,-2.88576564344746,-0.265107438016529,1.25872373081464,-0.633464580873672,0.97779279811098,-2.15612396694215,-0.81830401416765,0.685294569067296,1.53910448642267,0.2161186540732,0.116629279811098,-1.25092916174734,-0.892255608028335,1.0162119244392,-4.42647048406139,-2.52983648170012,-1.57882821723731,-2.92091440377804,0.263788075560803,-3.18664521841795,-1.99463931523022,-5.13254722550177,0.355688311688311,-1.71870011806375,0.288305785123967,-1.91643683589138,-0.364367178276269,-2.8865360094451,-1.86791499409681,-1.23789315230224,-4.39752774498229,-4.44467178276269,-4.15215289256198,-3.55603482880756,-3.96327036599764,-2.30311629279811,-3.66395867768595,-4.02878866587958,-3.65179102715466,1.09683589138135,0.397642857142857,0.399953364817001,0.010130460448642,-0.623108618654073,-1.74394037780401,-2.4639386068477,-4.4545974025974,-0.600992916174734,-4.223,-2.46551593860685,-4.63241263282172,-0.786749114521842,1.00585537190083,-4.97682290436836,-3.93716587957497,-2.77607024793388,-4.12677272727273,-6.81918063754427,-5.673139905549,-3.68923907910272
9,8,co2a0000377,TRUE,0.684078615436166,0.915357739149156,0.819735712135116,-0.25984522638636,-0.06555544693205,-0.77731005547295,0.793201768713508,0.847398600878208,0.289063878651919,-0.096047134706982,-0.007080620120602,-0.461828809353937,0.673354399136367,0.641908362563817,0.751809502037818,-0.68379715807535,-0.357214230818292,-0.710277943467607,0.511414176440403,0.555176690791563,0.696053836063965,-0.112709562650028,0.078184885347134,-0.41856027580773,-0.158289018587089,-0.185949401277583,-0.655474608102951,-0.408416353143038,-0.499935983534225,-0.24987294238491,-0.087164027518742,-0.076025871610674,-0.633334655108474,-0.45613825680515,-0.397895965492919,-0.53827158597582,-0.039345839183305,0.182441254717487,-0.521516288658986,0.252329114282714,0.462037957171894,0.065822959075368,-0.186849729365878,0.081116982758345,-0.106071109865883,-0.169687814019743,-0.691256069186386,0.024722623040072,-0.004972624838548,0.716288801712829,0.527222570567388,-6.13549506493504,-1.48010025974026,2.70385844155843,-2.44570046874999,0.522158593749996,3.18420203125,0.739212207792208,0.544029350649351,1.34722675324675,1.44540285714286,0.638100779220779,0.246608311688312,0.016443376623377,0.27400025974026,0.579052467532468,0.530387532467533,1.19038675324675,0.567247792207792,0.643125194805195,0.393891168831169,1.08003428571429,0.597024935064935,1.16850831168831,0.682399480519481,2.70385844155844,0.690488311688312,0.364704155844156,0.822595584415585,0.628892207792208,1.0874425974026,0.883768571428571,1.13752025974026,1.5836838961039,0.301959220779221,-0.12130025974026,0.568854285714286,0.354493246753247,0.805873766233766,1.04651272727273,-0.104682337662338,1.27297012987013,1.17024441558442,1.72393298701299,1.11875220779221,1.9009387012987,0.509442337662338,2.25510363636364,1.91277948051948,2.06844,1.60818025974026,1.73039272727273,1.21079428571429,1.26114025974026,1.28729090909091,1.10363662337662,0.842377402597402,0.973615324675325,2.19527376623377,2.60032181818182,2.27511922077922,0.877769350649351,2.17982467532468,1.55346077922078,0.711087272727273,1.49878753246753,0.863114285714286,1.20252909090909,0.82264,0.752671428571429,2.29372103896104,0.435608831168831,0.708297662337663,-1.67350857142857,-2.37278805194805,0.572535584415584,0.040464415584416,-0.225317402597403,-0.695936623376623,-0.72624,-1.86034233766234,-1.15969662337662,-0.128829090909091,-0.112583376623377,-0.94027948051948,-0.641403116883117,-2.06399948051948,-1.3040612987013,0.35681038961039,-6.13549506493507,0.878567272727273,0.802737662337662,0.587767792207792,0.69154025974026,-0.941987012987013,0.026492987012987,-3.85729766233766,-1.5224587012987,0.519512207792208,0.120382857142857,0.099919480519481,0.099113766233766,-1.32139376623377,-0.443273246753247,0.335801558441558,-0.449119480519481,-0.619631168831169,-1.11388883116883,-2.93923220779221,-1.27964935064935,0.92091948051948,-3.37977142857143,-2.99658285714286,-2.77321350649351,-0.151368311688312,-0.565902857142857,-0.918771948051948,-1.14718077922078,-1.8530025974026,-2.06374025974026,-4.07332467532468,-3.35061714285714,-1.24586805194805,-1.15031688311688,-3.45433142857143,-4.41508155844156,-1.21103584415584,-0.039394285714286,-4.17305922077922,-2.26247948051948,-3.7899012987013,-2.89460831168831,-3.49538233766234,-4.56410441558442,-3.37915636363636,1.63418961038961,2.37874285714286,0.765891428571429,2.57171584415584,1.87486961038961,-0.920292987012987,1.15893662337662,-1.61668363636364,2.40191220779221,-1.99842285714286,2.55616883116883,-0.516643636363636,1.51536935064935,-1.52579064935065,2.25556051948052,-1.9361974025974,1.92975584415584,0.731530909090909,-1.48010025974026,1.33577038961039,1.97331948051948,0.915270649350649,2.6040587012987,-0.051938701298701,2.75673454545455,-1.85684675324675,2.10341350649351,-0.243610909090909,1.22517142857143,-0.370986493506493,2.34473506493506,-1.06861922077922,2.67339584415584,0.284839480519481,1.8797787012987,2.39813974025974,2.61496363636364,-1.97868623376623,1.79615324675325,1.45739376623377,-1.3218612987013,-0.845429090909091,-0.712869090909091,0.574250909090909,1.11787324675325,-0.329640519480519,1.17398597402597,-0.855891948051948,0.753700779220779,-2.23762961038961,-0.04760051948052,0.40668987012987,1.67862961038961,-0.701502857142857,-1.13064571428571,0.424672207792208,0.894801558441558,-3.22052727272727,1.71098649350649,-2.90108311688312,1.18202597402597,0.885249350649351,-3.32321350649351,-1.32249818181818
10,9,co2a0000378,TRUE,0.553834604467353,0.595693306535632,0.593241912130407,-0.551622826279815,-0.728591903187417,-0.775150837885312,0.756693907300892,0.819180246052727,0.79119414646654,-0.418728353233641,-0.524333746158696,-0.231279992644204,0.612632867307912,0.817325319761696,0.262583064049663,-0.897864140784128,-0.804071457856025,-0.649157981047678,0.462490188445833,0.260407785506032,0.638789807303031,-0.444880993201992,-0.462734470581237,-0.266636041016844,-0.449546190067547,-0.674407153054387,-0.660326618254142,-0.547141575272804,-0.511453927782317,-0.366898648719803,-0.88642542218963,-0.773982581669944,-0.812799541239675,-0.560123454595968,-0.731798846995998,-0.745243422723407,-0.5289506426774,-0.753564262447367,-0.658618753374749,-0.400878464181181,-0.481998190661367,-0.27335114741435,-0.583040600061088,-0.775949551926538,-0.426047368719821,-0.261077661269758,0.174788415054327,-0.000684011839075,0.400994108455372,-0.119742822600352,0.223718779879926,-14.4834723424723,-7.93487863860277,3.43445060296847,-11.7014683159722,-9.85020150862073,2.50634075055803,0.379091141001855,0.152921150278293,1.00601321892393,0.61284021335807,0.370189471243043,-0.000115491651206,-0.636263218923933,3.59520779220779,-0.57115607606679,2.51755496289425,0.151807977736549,1.7845883580705,0.753618738404453,3.71040213358071,1.19990143784787,4.44461641929499,1.44809531539889,0.70033719851577,3.43445060296846,0.108116883116883,-0.704795454545455,0.106363868274583,-0.269883116883117,-0.19254754174397,-1.05997912801484,0.931463126159555,0.452809601113173,-0.731231215213358,-1.40810667903525,0.164713358070501,-1.20270106679035,1.10344805194805,-0.801379174397031,-1.11220199443414,1.90954730983302,1.56110575139147,0.816395408163265,1.8662711038961,-0.142173701298701,-0.353319109461967,2.25288961038961,2.80251159554731,0.701929962894249,3.05602898886827,2.20928084415584,3.75982838589981,3.10319735621521,4.77599675324675,3.57726484230056,6.16519086270872,3.62187615955473,2.16705078849722,2.95088821892393,2.24766488868275,5.13082397959184,1.23212337662338,1.79516419294991,2.25599350649351,0.631297773654916,4.67114285714286,1.54741349721707,2.84677087198516,0.168798933209647,2.34493483302412,-3.78237325637326,-3.55650072150072,-3.41648725348725,-4.27521645021645,-2.96354882154882,-2.70616354016354,-1.23165512265512,-1.43733525733526,-0.272531505531505,-2.8573468013468,-1.96646801346801,-0.826165464165464,0.25384126984127,0.153124579124579,0.404741702741703,-1.06568975468975,-1.18162433862434,-0.038324194324194,-14.4834723424723,-3.52851755651756,-3.23641943241943,-1.83230062530063,-1.45883597883598,-3.07994468494468,-1.33283068783069,-6.5744203944204,-4.09296151996152,-2.69988407888408,-2.10545262145262,-3.39976815776816,-1.45060413660414,-3.9979215969216,-3.03483934583935,-2.26877056277056,-3.44450456950457,-2.65447282347282,-3.782443001443,-6.46340307840308,-6.81365271765272,-2.72012025012025,-1.08700721500722,-1.83238864838865,-4.40444444444445,1.4349797979798,1.18139778739779,0.29790860990861,0.930228475228476,0.128208273208273,-0.953616161616162,-2.09757383357383,-2.70427705627706,-0.59920683020683,-1.50795574795575,-1.95091582491582,-1.32783405483406,-1.54950745550746,0.336807118807119,-3.62789658489658,-6.08726936026936,-2.71637662337662,-4.71237758537759,-1.72311688311688,-7.27085858585859,-0.880000962000962,2.04947380206001,0.772386475593372,1.11536005373936,0.673005821764442,1.00798835647112,1.20037393640842,-1.08970712046574,3.29561083743842,-0.453378414688759,2.44917913121361,-0.158963725929243,1.5054697716077,0.655708911777877,3.20448454993283,1.7588696820421,3.74589252127183,1.87984908195253,0.491463502015226,-7.93487863860278,1.03699462606359,0.255757725033587,2.97747872816838,0.763716077026422,2.44893506493506,2.4239816390506,0.391020600089566,-0.35466815942678,0.510247201074787,-0.850307210031348,1.95615718763995,-0.368660546350202,2.29054187192118,-0.338251231527094,-0.23741065830721,0.442555306762204,0.582419614867891,0.637780116435289,-0.360850873264667,-2.22723510971787,0.900000447828034,-1.92105463502015,-0.313756829377519,-2.76835109717868,1.70886162113748,1.74335378414689,2.2845512763099,2.65009359605911,3.08336542767577,2.91698880429915,3.25387595163457,1.85594805194805,-0.250885356023287,1.01963143752799,0.404888938647559,2.12684370801612,-0.546639050604568,0.857776533811017,1.21985490371697,-1.80472951186744,2.18552351097179,0.355687863860278,-0.726161665920287,-2.46105597850425,-1.89574070756829
11,10,co2a0000379,TRUE,0.691228445633158,0.712189218061813,0.704721424534384,-0.633595283956571,-0.688213774980495,-0.53621888163986,0.543935725794078,0.610917017274824,0.622127117707601,-0.259493922212795,-0.431853937837573,-0.161398652333391,0.23708545226271,0.061557401951378,0.604520807468652,-0.742518794318702,-0.491418742191637,-0.602456901763078,0.260104504957064,0.178025098062083,0.32205950669346,-0.489022352277382,-0.373735980556778,-0.233975094645965,-0.545853358742251,-0.536279609629798,-0.175605581517762,-0.436076674371709,-0.218142956924687,-0.134360747576341,-0.610915178490925,-0.655371239870944,-0.63336184906284,-0.659871646898782,-0.649842770618833,-0.393998629158866,-0.322426400504137,-0.443710595231443,-0.417042037657428,-0.158987306848909,-0.228286737676883,-0.086951086549047,-0.274149606345684,-0.228270278350025,-0.271011093507003,-0.100573256961344,-0.377380016337253,0.089606944583276,0.081228107276164,-0.070867053649072,0.494368282396777,-2.17532563732563,1.60986724386724,-1.69877513227513,-2.11254788773148,-0.299811342592596,-1.23406127025464,-4.29617797017797,-4.10062602212602,-5.96397065897066,-4.49343602693603,-4.26617267917268,0.354696248196248,0.632019480519481,0.748192881192881,0.868128427128427,-1.00553415103415,-0.481011063011063,1.42536171236171,1.93760341510342,1.58730447330447,2.05057936507936,0.344571188071188,0.680605098605099,1.19789874939875,-1.69877513227513,-2.93762385762386,-3.0900291005291,-2.77693097643098,-2.6110088985089,-2.49424843674844,-1.66804088504089,-4.3787582972583,-1.00857215007215,-1.4280974025974,-1.47294203944204,-1.23995117845118,-1.05026575276575,-2.1043278018278,-1.92842905242905,-1.75546825396825,-6.68287878787879,-5.78408345358345,-6.1795658970659,-3.46796248196248,-2.89569071669072,-3.23958273208273,-2.26579822029822,-3.1067126022126,-3.55494348244348,1.64841197691198,1.48779461279461,1.89921428571429,1.98880110630111,1.22191895141895,0.834479316979317,-0.2229329004329,-1.96627561327561,-0.641234006734007,-0.609291245791246,-0.77043771043771,-1.88193530543531,-0.550758056758056,-1.76987782587783,-2.55149759499759,-2.12284848484848,-1.66504136604137,-1.55471981721982,-8.36711784511785,-6.63247715247715,-2.23785521885522,-4.98915873015873,-6.07316402116402,-9.14495382395382,-9.8795367965368,-5.8467974987975,0.86076911976912,0.156386243386243,1.78684078884079,-0.083763828763829,0.298029341029341,-1.48732178932179,3.12210678210678,1.87519047619048,3.98437181337181,1.75333189033189,2.78872631072631,0.447627224627225,1.82922510822511,-2.17532563732564,-3.04065175565176,-4.20862145262145,-2.21764598364598,-4.16644203944204,-2.09267676767677,-4.83020683020683,-4.74541702741703,-5.884405002405,-1.48441750841751,-2.12966810966811,-0.381655122655123,-2.31890476190476,-0.842683982683983,-3.30098508898509,-2.36173977873978,-10.2939345839346,-11.3135103415103,-11.4522698412698,-3.03740644540645,-3.6128379028379,-3.88282251082251,-2.19361135161135,-3.80825204425204,-3.75761279461279,2.95455074555075,1.25881337181337,4.30366378066378,1.39705339105339,3.75113227513228,-0.019429052429053,1.89052236652237,-3.05618614718615,-0.151694083694083,-1.45946753246753,0.943569504569505,-3.40012025012025,-0.704476671476671,2.89053102453102,-1.12394227994228,-2.47871188071188,0.768474747474748,-1.55613468013468,-14.9226204906205,-7.00162145262145,-2.24397739297739,-2.435996003996,-3.01328271728272,-5.77954545454545,-7.01486463536464,-2.81064735264735,-0.142287712287712,1.18416533466533,-0.005557942057942,1.36572727272727,-0.782154345654346,-0.879409090909091,2.27196753246753,2.60014285714286,2.58448901098901,2.34114935064935,1.69711638361638,0.460892107892108,1.84396853146853,1.57509190809191,-1.31590809190809,-1.85050749250749,-0.825394605394605,-2.25445604395604,-2.26468681318681,-4.6428966033966,-2.69606693306693,-5.05914735264735,-1.45917682317682,-0.761285714285714,-0.668901098901099,-0.827038461538461,-0.94205994005994,-2.58183416583417,-1.43798101898102,-6.15222327672328,-6.73152347652348,-6.8000959040959,-2.1571013986014,-3.50242057942058,-1.75564585414585,-2.73520479520479,-5.04196453546454,-4.96204495504496,2.87335464535465,1.03628721278721,3.89869130869131,1.2407972027972,3.24992257742258,-0.947404095904096,1.18419430569431,-2.64572727272727,-0.692941058941059,-2.40314285714286,-0.050023476523477,-4.09566283716284,-1.34545254745255,2.09991908091908,-1.71855294705295,-3.07543256743257,-0.087776223776224,-2.58106993006993,-9.73018981018981,-4.67392807192807,-2.75859390609391
12,11,co2a0000380,TRUE,0.830251185151637,0.80046608332114,0.663685730098488,-0.515583103396076,-0.550002453322306,-0.218137190747802,0.451722343110034,0.749474905942323,0.728828458432067,-0.262289446165229,-0.594528254164371,-0.455088112811599,0.340100523979289,0.392098495513942,0.770582403520103,-0.67186016812325,-0.25575622537101,-0.30466483631762,0.687092768480558,0.405449756090327,0.672267887161694,-0.244023453136466,-0.653983259094121,-0.494485945890467,-0.35383165830311,-0.564608565489577,-0.401784702229671,-0.350074862490327,-0.330473439712579,-0.198925850629826,-0.712436426711811,-0.464654832237423,-0.246204436304023,-0.319933583281614,-0.527767908262513,-0.312819745576018,-0.247761016617633,-0.560435424211709,-0.258253511027348,0.017453078148505,-0.580073263536728,-0.189330076748137,-0.242244339129456,-0.692968915003288,-0.793914466763915,0.14110132339533,-0.048490089477995,-0.407818490827484,0.614309637936143,0.325091097357379,0.12949564726802,-7.4452811970638,-3.13569264069265,3.67515826034431,-5.4905358355978,0.284292224702393,4.7364785610465,-3.6021504077318,-2.76187405617638,-6.23214225309574,-9.08197795228028,-2.81963243733011,-1.29456357595893,-5.92194774992449,-1.57740622168529,-2.73896889157354,-1.40000755058895,-3.33279492600423,-1.90723316218665,-2.96453911205074,-2.63022681969194,-3.15107852612504,-2.52615524010873,-4.37598308668076,-2.32431078224101,3.67515826034431,-2.00794110540622,-6.1898151615826,-2.02672425249169,-2.44176411960133,-3.6256934460888,-2.56120598006644,-2.56010419812745,-3.46089912413168,-1.84473965569314,-2.04809030504379,-1.36718846270009,-2.21334853518574,-2.0602292358804,-2.70372455451525,-1.88240742977952,-3.68519178495923,-3.8301196013289,-14.6076339474479,-4.91014557535488,-3.29687798248263,-2.00101087284808,-6.79050347327091,-7.9886532769556,-9.49998338870432,-3.47676713983691,-3.3200229537904,-3.58495439444277,-4.4949634551495,-3.40647176079734,-5.25765146481426,-4.3472564180006,-5.99841467834491,-5.29975294472969,-6.78797070371489,-5.44063636363636,-6.46792751434612,-4.63323406825733,-3.34234007852613,-2.68712020537602,-3.73783569918454,-2.50791845363938,-4.96059075807913,-6.104485653881,-1.23553639383872,-6.55739625490788,-1.62881592320723,-1.86761095426313,-3.54629418407679,-0.873045172219086,-1.72295652173913,-2.59740090344438,-6.61298983625071,-3.14518802936194,-2.22267080745342,-4.00334217955957,-2.49454714850367,-2.72415697346132,-2.54553811405985,-3.22107340485601,-2.99222642574816,-4.75599943534726,-4.78660926030491,-2.33912422360248,-7.44528119706381,-1.98000846979108,-7.87672953133823,-2.5509751552795,-1.08662676453981,-4.68776397515528,-2.02110333145116,-3.34469904009034,-5.47827724449464,-2.83321005081875,-1.4305110107284,-3.11016205533597,-1.18769960474308,-3.96270976849238,-2.44832523997741,-1.2297334839074,-4.54124505928854,-4.19536645962733,0.23955900621118,-5.23952173913043,-5.37847600225861,-1.34172219085263,-8.76914003387916,-6.83836984754376,4.0157628458498,-3.92054206662902,-3.75690909090909,-5.32858328627894,-5.11124901185771,-5.70831451157538,-5.56255844155844,-7.99074195369848,-7.66285827216262,-6.47631225296443,-2.47172840203275,-8.71582552230378,-8.40302145680407,-6.04399943534726,-3.45876623376623,-5.73930208921513,-6.23957594579334,-6.33153811405985,-6.52794522868436,-8.63443421795596,-9.4640790513834,-8.53916431394692,-0.674272108843536,-2.96138651824366,5.53491898577613,0.497883735312306,-1.70348051948052,-1.90479962894249,-7.96426035868893,-2.05686456400742,-3.45254421768707,-3.41951144094001,-4.74152380952381,-3.00321273964131,-4.24598206555349,-3.0587866419295,-5.35843784786642,-3.7597501546073,-6.43865306122449,-3.45856029684601,-3.13569264069264,-1.60532776747062,-8.58513543599258,-1.92075510204082,-3.02923438466296,-3.41221212121212,-3.57883797155226,-4.05025046382189,-5.81882498453927,-0.480191713048856,-2.95222448979592,-1.61763945578231,-3.66934446505875,-3.46740445269017,-4.42392269635127,-1.5597680890538,-2.57629931972789,-3.94847247990105,0.494246134817562,-4.37175819418677,-6.04761162646877,-1.8555485466914,-8.97359802102659,-9.63626654298083,-3.71126530612245,-4.80646567717996,-5.51113358070501,-4.43066852195424,-6.48502102659246,-6.71244650587508,-7.7149146567718,-7.79194310451453,-9.05648423005566,-7.91717439703154,-5.99039764996908,-10.0461484230056,-10.1694446505875,-7.72857142857143,-5.29668645640074,-6.02653494124923,-7.36093444650588,-7.44067841682127,-8.05085219542362,-7.29761842918986,-12.1401249226964,-9.66218985776129
13,12,co2a0000381,TRUE,0.822750330088866,0.844661893821513,0.740139768699837,-0.830640314533864,-0.647873451851248,-0.72657764369755,0.692310890070907,0.666064697087765,0.512404995512947,-0.651294867176855,-0.443588679358465,-0.3885247140971,0.858978454067671,0.626686771413493,0.930379506092767,-0.83616224910053,-0.780477613519589,-0.669830588786207,0.511173271756381,0.49615917415571,0.851409380899632,-0.673134223920091,-0.521807146080406,-0.50980398531828,-0.716037351566673,-0.491819224923665,-0.57949762097183,-0.502815315612763,-0.654949144325163,-0.491832170492401,-0.539057677800402,-0.484974440538319,-0.668226209057827,-0.600453619592964,-0.487450782455387,-0.522444712860108,-0.412203310611535,-0.184249101266128,-0.579633152120418,-0.137077283554277,-0.050888392191406,-0.540342594732846,-0.201878266390579,-0.127637320622917,-0.73825365928843,-0.084766372056225,-0.184313169388462,-0.03523222447376,0.280803487045502,0.573163760325007,-0.024400247681926,-2.99078441558442,-4.33405454545454,3.300613997114,-4.56876546875,-7.09088796875001,2.57323495370368,-1.92669408369408,-1.19712842712843,-2.06419143819144,0.008757816257816,-1.76217508417508,0.338930735930736,0.152728475228475,0.344769600769601,0.255822991822992,0.11468253968254,0.072078884078884,1.9382506012506,1.56803463203463,1.80247619047619,1.01210245310245,1.30898075998076,0.645205627705628,1.70573496873497,3.300613997114,-1.67736483886484,-1.29844516594517,-1.55456758056758,-0.78107215007215,-1.61926623376623,-0.129932419432419,-1.48818326118326,0.313433621933622,-1.1324721019721,-0.804611832611833,-0.880703222703223,-0.435659692159692,-0.855735209235209,-0.10010076960077,-1.18903006253006,-2.14907359307359,-1.11325733525734,-1.69371212121212,-1.03108128908129,0.081410052910053,-1.64325468975469,3.69434535834536,2.56128306878307,3.96851106301106,3.33608802308802,2.9161164021164,3.27095550745551,2.13518398268398,2.80624025974026,1.44341005291005,2.38265271765272,1.18147474747475,4.19504978354978,3.32681216931217,3.32659595959596,1.7467481962482,4.00003006253006,3.06793891293891,-0.09676430976431,0.219762866762867,0.91081240981241,0.613388167388167,-1.6866038961039,-1.43614598364598,3.71672679172679,-4.14878571428571,-4.09661216056671,-4.86910861865407,-4.09077213695396,-4.17927036599764,0.219108028335301,-0.226423258559622,-0.535514757969303,-0.329741440377804,-1.54267414403778,-0.234816410861865,1.89112455726092,1.61859504132231,0.975724911452184,0.908369539551358,-0.409311688311688,0.694013577331759,2.01411983471074,-3.2307414403778,-2.92434592680047,-2.81487012987013,-2.90500472255018,-2.32562455726092,-3.22676682408501,-2.22240495867769,-3.90074085005903,-2.35330519480519,-1.76982113341204,-1.55282703659976,-1.63719362455726,-0.843008854781582,-2.25593034238489,-0.899779811097993,-1.92511393152302,-5.9502520661157,-5.57567709563164,-6.13683648170012,-2.92839905548997,-1.13919421487603,-3.13669244391972,-0.248717827626918,0.165327626918536,0.150876033057851,2.80276151121606,2.50345218417946,1.68715112160567,1.802593270366,0.723436835891381,0.946667060212515,-0.411610979929162,0.309384297520661,2.58650649350649,2.35577981109799,0.24096694214876,-0.163274498229044,2.87299881936246,2.88324734356553,-1.78448642266824,-0.26440613931523,-1.28047343565525,0.511382526564345,-9.03380696576151,-5.08541027154664,-0.253034828807556,-3.26699887069452,-3.15903896103896,-4.82359683794466,-4.12203670242801,-3.02853133822699,-0.449446075663467,0.080709203839639,-1.62575776397516,-0.082993788819876,-2.84921287408244,-0.956603049124788,0.93631507622812,1.35084302653868,-0.062373800112931,0.282079616036138,-1.96269452286844,-0.639754376058724,1.35044889892716,-3.92424336533032,-2.16897346132129,-1.84157876905703,-2.53494184076793,-1.62952399774139,-3.24069057029927,-2.21246583850932,-4.43516826651609,-2.72423150762281,-1.48206098249577,-0.70368492377188,-2.08173122529644,-0.299502540937323,-3.09221174477696,-1.28723037831734,-1.31507227555054,-5.54720383963862,-5.11918125352908,-5.65186730660644,-4.05690796160361,-2.02871033314512,-2.15050818746471,-1.73690739695088,-2.63547713156409,-1.74778994918125,1.57519593450028,1.38897854319593,0.350894409937888,0.458216826651609,-0.750230378317335,-1.06034782608696,-2.17638226990401,-2.26445849802372,1.00545511010728,0.414819311123659,-1.70998588368154,-3.06530491247883,0.995675889328063,1.86604065499718,-3.55641219649915,-1.35414003387916,-2.97323997741389,-1.69658949745906,-10.2574042913608,-6.89173235460192,-1.75146470920384
14,13,co2a0000382,TRUE,0.681577209783627,0.643285089824607,0.67529737805653,-0.903517583520147,-0.821476484435506,-0.787304616499853,0.351420180811048,0.293587961416167,0.382968933703571,-0.847198654649619,-0.709324356204668,-0.771581988690844,0.942159917498592,0.902400449855609,0.246007025191841,-0.835193774420261,-0.757011673586789,-0.232709539035654,0.552923270236633,0.440687450538032,0.279925023761718,-0.784186107351816,-0.698529496715249,-0.555770973485672,-0.880607760540325,-0.764314084649852,-0.800096833668458,-0.080839103031285,-0.120158326263402,-0.404974781797396,-0.76362766455422,-0.700824002024744,-0.610314107494313,-0.743629953941095,-0.626153471313047,-0.706439370605495,-0.708949600157953,-0.422296164804709,-0.809040816586719,-0.361298516775186,-0.135421364646105,-0.397377433951155,-0.506821331364193,-0.247055707681527,-0.567238104156257,0.030791827588274,0.196664114647688,-0.315975573502265,0.343044463530731,0.537779990326468,0.092151859257386,-6.4118369905956,-8.21878884078883,10.08528929691,-6.43023962823273,-9.42569010416672,9.89487250808191,-1.92970532915361,-1.52207254814151,-3.4061934617107,-1.44389274518585,-1.7669052843708,0.303216077026422,0.502821988356471,1.06919905956113,1.00114778325123,1.18618696820421,1.95918898343036,1.45683407971339,1.60070286609942,1.99946372592924,2.0845329153605,2.05918965517241,2.91070555306762,1.29575436632333,10.08528929691,-1.38495185848634,-1.08179175996417,-1.0640342588446,-0.318246529332736,-1.02371988356471,0.12929802955665,-1.58966099417824,0.657742946708464,-0.693312807881773,-0.513753694581281,-0.038943797581729,0.294270040304523,0.19309986565159,1.39978974473802,-1.20957321988356,-3.42343528884908,-3.34396059113301,-3.19184841021048,0.676677563815495,3.08136386027765,-1.47809068517689,5.3603513210927,6.11543058665473,5.70183184057322,2.86041916703986,3.14928235557546,3.07276757725034,3.43846932377967,3.06210277653381,4.37282825794895,3.40614285714286,5.39762248096731,4.31940147783251,5.07495230631438,4.63331930138827,6.15859717868339,4.29021473354232,2.51887617554859,1.57143708016122,2.44392006269592,2.47767286162114,3.72584527541424,-5.92739834303627,2.27826041200179,5.42572122704881,-2.01138358070501,-1.54344619666048,-2.63068135435993,-2.4008167903525,-1.79068506493506,-0.754458719851577,0.036876623376624,-1.65969294990724,-0.885309833024119,-2.99503478664193,-2.26536224489796,-0.039408163265306,0.737535714285714,-1.28262940630798,-0.442095083487941,-2.66546753246753,-1.98006354359926,0.990541743970316,-6.16632235621521,-2.19294341372913,-1.4307560296846,-2.17986502782931,-1.19909693877551,-2.71542810760668,-1.7332926716141,-4.01773886827458,-3.10896428571429,-1.93802643784787,-1.07429174397032,-2.29878293135436,-1.05734647495362,-3.04575046382189,-2.37165491651206,-1.58769155844156,-1.97452968460111,-1.80439285714286,-1.61290027829314,-3.70705658627087,-3.17964378478664,-1.71301020408163,-1.9980180890538,-1.67143599257885,-1.6958961038961,0.085648423005566,0.475614100185529,-0.807653525046382,-0.040354359925788,-2.29560296846011,-1.70230658627087,-3.88905333951762,-3.66978617810761,-0.453803339517625,-0.047898886827458,-3.16434647495362,-2.53135714285714,0.093740723562152,0.678487940630798,-4.16020779220779,-3.79565445269017,-4.22673840445269,-3.88511363636364,-4.2691586270872,-7.52128200371057,-2.05235435992579,0.196931568431569,0.256952547452547,-0.938675824175824,-1.22961738261738,0.18759040959041,0.06881968031968,-0.75176973026973,-0.322215784215784,-1.63797502497503,-1.94679020979021,-2.78817532467533,-0.701355144855145,-1.38259390609391,-1.57298551448551,-2.46202647352647,-2.64721478521479,-3.53836763236763,-0.591245754245754,-8.0336008991009,0.415330669330669,0.087693306693307,0.428305694305694,-0.077338661338661,-0.028640859140859,-0.55938961038961,-2.23553846153846,-2.20416083916084,0.268788711288711,-0.546076423576424,0.087801698301698,-1.16492707292707,-1.02241758241758,-1.65095054945055,0.032998501498502,-0.613588411588411,-0.583461038961039,-0.921813186813187,-2.94281668331668,-2.64714435564436,0.238007492507492,-5.06862837162837,-4.67604845154845,-4.87115784215784,-2.25235964035964,-2.49550649350649,-2.83667982017982,-3.07872577422577,-3.66991908091908,-3.76132417582418,-5.23654645354645,-4.92831618381618,-3.7685044955045,-3.48008391608392,-5.56517282717283,-4.95084465534466,-3.37768481518481,-2.02084715284715,-4.09182717282717,-4.17819330669331,-4.4567047952048,-4.87264985014985,-5.67416283716284,-9.07499150849151,-5.07809140859141
15,14,co2a0000384,TRUE,0.656685824997968,0.806778615698325,0.801574638218401,-0.771403674390803,-0.59029845825921,-0.777579031260872,0.473615187300498,-0.175306067019554,0.80754242118315,-0.848524841609323,-0.524140896402877,-0.486443585836895,0.86165440461091,0.777306509470444,0.853516508867968,-0.577823714006184,-0.34077443964272,-0.6154193527582,0.781085513157683,0.857659658651017,0.70746783394678,-0.802553460433281,-0.533334405981927,-0.373719679810646,-0.868718457302834,-0.649658826469142,-0.665532369329542,-0.035004170733438,0.188906345842003,-0.244819118025191,-0.470886821498742,-0.238230448514007,-0.821963411660947,-0.504540392398704,-0.146856947379003,-0.857707100500116,-0.465390500649149,-0.450428900798477,-0.682981336841705,-0.339833707546074,-0.0495128705529,-0.037687915250571,-0.476404862251045,-0.300356293618581,-0.343188548221945,0.458636449758277,0.444766303889489,-0.160233689575289,0.605600803072476,0.5839145059219,0.18727323247875,-15.7790991735537,-8.6627156291984,0.120991518685399,4.44071147017046,3.16652801724139,-0.155815609056119,-1.85316777100451,-1.96263980917042,-2.79698648290485,-1.82660588391201,-2.47592817386695,0.693817651736019,0.004153723827193,1.12642989663398,-0.093892923403128,-0.177301616750596,-1.36888020143122,2.0648221574344,1.42105910416115,1.56141611449775,1.10263927908826,1.06836920222635,-0.006526901669759,1.20878425655977,0.120991518685397,-1.48410760667904,-2.14400238536973,-1.60781341107872,-1.90681023058574,-1.7974110787172,-1.67540869334747,-2.29190829578585,-1.56715451895044,-1.06329260535383,-1.88519507023589,-0.754332361516035,-1.48909276437848,-1.33077710045057,-1.6892062019613,-1.4768377948582,-3.59714338722502,-4.08054969520276,-2.71844314868805,-3.26076093294461,-1.95163106281474,-1.62080095414789,-1.72582745825603,-1.80411184733634,-1.55039332096475,2.46802093824543,2.09564325470448,2.09929128014842,1.34639517625232,0.612964749536178,0.065505168301087,-0.235510469122714,-1.36230771269547,1.03027378743705,0.186970050357806,-1.45139014047177,-1.37117545719587,1.24213411078717,2.09380121918897,-1.40305221309303,-1.28665041081368,-0.781591571693613,-1.65124940365757,-3.2428876225815,-2.49386535913067,-1.72983302411874,-3.81270377241806,-4.69047990105133,-6.82491713048856,-9.04606431663574,-4.1822319109462,0.124575757575758,-1.20862708719852,-0.574359925788497,-3.02965986394558,-3.22787384044527,-5.29432282003711,0.54491218305504,0.012758194186766,-0.844473098330241,-2.11083240568955,-3.47582869511441,-4.09830426716141,0.223019171304886,-16.4679635126778,-2.3512560296846,-3.57946011131725,-2.66344341372913,-4.07504700061843,-3.96241496598639,-6.66442238713667,-6.57070995670996,-6.68396289424861,-1.3233964131107,-1.90048670377242,-1.87349598021027,-3.54043537414966,-3.71918429189858,-5.81942238713667,-1.48717934446506,-6.91332220160792,-8.5248478664193,-7.02510760667904,-8.46481014223871,-7.7864329004329,-2.69733271490414,-9.37803092145949,-9.68367594310451,-9.03395361781076,-0.934400742115028,-0.81052133580705,-2.05714223871367,-1.97955844155844,-4.81565306122449,-4.17968089053803,-8.65171057513915,-8.02025046382189,-4.82405132962276,-4.48951020408163,-10.375012987013,-8.60956215213358,-3.33909214594929,-0.641170068027211,-6.99222820037106,-6.52979097093383,-6.54795361781076,-7.6091583178726,-9.61773531230674,-9.05814471243043,-9.40408410636982,1.17333318405732,1.00094312583968,0.125387819077474,-0.682485445588894,1.23722391401702,-0.332401253918495,0.639305418719212,-0.327741603224362,0.430486341244962,-0.990938199731303,-0.267022839229736,0.148613972234662,0.502906403940887,-0.087714285714286,0.817857590685177,-1.44311016569637,-0.638968652037617,0.059699507389163,-8.66271562919839,0.631240931482311,0.950606806986117,0.91582355575459,1.04465427675773,0.681608150470219,0.155293775190327,-0.889047469771607,0.501686072548142,-0.570369010300045,0.969572324227497,-0.422812807881773,0.862175548589342,-0.634652933273623,-0.250823107926556,0.014246305418719,0.353031347962382,-1.03473443797582,-0.324112404836543,-1.32528034034931,-2.00391177787729,0.748364532019704,-6.06930049261084,-6.3387012987013,-6.3490631437528,-0.501841021047918,0.395524406627855,-1.01001030004478,0.459675772503359,-2.31219659650694,-1.33072413793103,-4.651210479176,-4.12530183609494,-3.23747335423197,-2.85747604120018,-5.86320913569189,-5.32077115987461,-2.52330900134348,-0.255854008060905,-2.74593640841917,-1.2069762651142,-3.47804791759964,-3.20866726377071,-1.50418316166592,-3.13744021495746,-6.07106941334528
16,15,co2a0000385,TRUE,0.62650494659409,0.730604119073532,0.557054888944254,-0.663973642377896,-0.535865556348793,-0.472425042077037,0.523201703214875,0.712080707879769,0.641356592076505,-0.714573356912997,-0.49753393598091,-0.658338807323481,0.464552379939619,0.448810556899498,0.467296639052963,-0.375811355796411,-0.050651697537899,-0.343309151601455,0.122680970599219,0.172074283613117,0.349846868474125,0.056045515339646,-0.334785513194113,-0.282224970135041,-0.814278528977682,-0.635786975799653,-0.76777342006036,-0.5024728430102,-0.23354725682837,-0.419297036173111,-0.670853204438643,-0.257710152048907,-0.278632546515295,0.015245761507519,0.07011872221773,-0.374762289295406,-0.308761621183152,-0.032741228854088,-0.103329542436735,-0.267459900088846,0.145580120592384,0.018196533423214,-0.196630416045881,0.074469958204804,-0.106793425759935,0.200759238414452,-0.152632816799708,-0.3581972018479,0.080974189616657,0.513079500300217,0.021629145496093,-4.76775477463713,-3.13387198515771,4.61743756243759,-6.37753929227941,-7.73679324776791,2.74464232772437,-0.753763236763237,-1.05866000666001,2.35440126540127,1.02716383616384,-0.698261738261738,0.253192474192474,-0.038244089244089,0.584773226773227,-0.014234099234099,1.79665301365301,0.306944055944056,0.580797535797536,0.530367632367632,1.71052247752248,1.8955014985015,2.97347752247752,1.20197835497836,1.01490742590743,4.61743756243756,-0.455213786213786,0.699579087579088,0.040025308025308,-3.95604828504828,0.289264402264402,-0.554733266733267,2.32259607059607,0.629304695304695,0.315839160839161,-0.046627372627373,0.279728604728605,-0.232684981684982,0.516034965034965,0.28326973026973,-0.666079254079254,-0.257041625041625,-0.653159507159507,-0.714956043956044,3.47971262071262,-1.25405594405594,-0.814257076257076,0.904876123876124,0.315164169164169,2.06151082251082,1.80207792207792,2.6205014985015,1.7455288045288,1.18659473859474,3.99436396936397,1.72197502497503,2.34034032634033,1.24040426240426,0.456456876456876,2.25969996669997,2.03290476190476,1.71486446886447,0.151204795204795,1.55489310689311,1.45125541125541,0.561824841824842,3.01831235431235,1.10081052281052,5.09712187812188,-0.773071262071262,0.915359973359973,-2.50587476808905,-3.72897217068646,-7.16813914656772,-4.16622634508349,-1.09737476808905,0.949712430426716,-0.251526901669759,-0.141659554730983,-1.02807513914657,0.581012059369202,-2.92326437847866,0.980577922077922,0.251007421150278,1.42665769944341,-1.60949628942486,-1.54683395176252,-2.58063358070501,0.461897031539889,-5.87856586270872,-1.0920241187384,-2.25237476808905,-2.22915491651206,5.98931539888683,-2.19400834879406,-1.47573098330241,-4.3197133580705,-3.66618181818182,-0.589996289424861,-1.00060018552876,-0.903222634508349,-1.54715398886827,-2.26529684601113,-3.01429591836735,-0.137985157699443,-3.12990445269017,-2.93367717996289,-2.77864471243043,-2.51295547309833,-4.30117439703154,-0.677205009276438,-2.10083673469388,-4.69612987012987,-1.72546196660482,-1.16543228200371,-2.69071799628942,-1.77225974025974,-0.572754174397032,-1.60260296846011,-2.37460482374768,0.033280148423006,-2.94395176252319,1.27983302411874,-6.82434044526902,-2.37150278293135,-2.23766048237477,-1.4870120593692,-0.207019480519481,-3.92805194805195,-3.82314285714286,-2.77866604823748,-7.60586178107607,-5.1987133580705,-6.39521614100186,-2.12174768089054,-0.979053803339517,1.01176345083488,-3.29842764378479,-0.752500927643785,-0.403152133580705,0.300840445269017,0.955547309833024,0.417411873840445,1.37205936920223,-1.24533858998145,1.56898330241187,1.0006706864564,1.60182745825603,1.89307235621521,0.877578849721707,0.53288775510204,0.570643784786642,1.72352319109462,-3.1338719851577,-0.545636363636364,-2.04982003710575,-0.002532467532468,-8.69117996289425,-0.512228200371057,0.70165306122449,-1.41230983302412,-0.112404452690167,-0.406591836734694,0.194207792207792,0.132606679035251,-5.10853988868275,0.238578849721707,0.32980612244898,0.250379406307978,-2.02005194805195,-0.620756957328386,-0.68632745825603,-2.51585250463822,-2.60364749536178,-0.267456400742115,0.567347866419295,2.74839795918367,1.01893042671614,0.196343228200371,2.11708441558441,2.27113265306122,1.60577272727273,-1.57754730983302,2.37047217068646,0.221766233766234,1.36119387755102,-1.37177829313544,3.09143692022263,1.12089239332097,0.385093692022263,1.45952226345084,1.99131632653061,0.752350649350649,-1.38629313543599,3.26386641929499,-1.37648515769944,0.0105426716141,-1.06975046382189,0.601099257884972
17,16,co2a0000386,TRUE,0.772310768452133,0.763094451756122,0.386924553821655,-0.655182521529686,-0.803926365997062,-0.810759085729189,0.805628085563365,0.917843974853735,0.883201681230485,-0.689816465940764,-0.491421293807863,-0.449816255963391,0.111486259195975,0.748136067169908,0.725365736897435,-0.708934633892184,-0.518620671371607,-0.656886549037617,0.60251361815205,0.529760481383973,0.409719850866222,-0.624655217689473,-0.326118022946445,-0.581142771896132,-0.693928061423049,-0.61929975777271,-0.699108705204525,-0.398413651856681,-0.430681339412049,-0.134644023255612,-0.562525323704865,-0.736830569933363,-0.628200701941679,-0.717773980683926,-0.830351923960344,-0.759794875216863,-0.550017315050382,-0.34943375223985,-0.233695019012837,-0.488303837133894,0.225108963999982,-0.433193122715529,-0.723388432435218,0.001891209038972,-0.591031361810742,-0.056997943586804,-0.207673093169887,0.039851268385491,0.091235578270473,0.290591165517815,0.004122693154428,-5.56454220779221,-3.887,1.17556660482375,-6.81731699218748,-6.69550528492645,-0.112856919642858,-3.02715102040816,-2.00544897959184,-4.96629833024119,-3.14620630797774,-2.46185825602968,-0.19941521335807,0.307598886827458,-0.632136920222634,0.382018181818182,-1.10302077922078,0.845246753246753,1.67050686456401,1.05734582560297,0.333872727272727,1.39525380333952,0.03437439703154,1.22721447124304,1.0607094619666,1.17556660482375,-1.98448051948052,-1.3058827458256,-2.35138293135436,-0.893374768089054,-3.62232244897959,-0.68131651205937,-4.06696660482375,-2.15354730983302,-1.27510649350649,-0.374836734693877,-1.62535287569573,-0.036118738404453,-2.29164712430427,-0.101410018552876,-0.515354730983302,-4.75006827458256,-2.48549276437848,-3.23603228200371,-3.85309090909091,0.132395918367347,-1.34433617810761,2.87329944341373,2.9774319109462,2.59214545454545,2.92897179962894,2.7924452690167,-0.625700185528757,2.09098181818182,1.73157254174397,2.1304719851577,1.0756107606679,2.06559666048237,4.2590400742115,3.2221706864564,2.94013209647495,2.63460556586271,3.59834916512059,-1.6703038961039,-0.42721521335807,0.471351391465677,-0.254091280148423,1.65964489795918,-8.89407012987013,-6.98010018552876,2.9444400742115,-2.07522438672439,-1.34622222222222,-2.0139126984127,0.761528138528139,-1.15257575757576,-0.418525252525253,-0.468250360750361,-0.456296536796537,-1.2842417027417,-1.51736291486291,-1.9105468975469,0.279069264069264,0.373652958152958,-0.042879509379509,-0.029870851370851,-0.946236652236652,-0.865320346320346,0.874824675324675,-7.81455194805195,-1.66551659451659,-1.87456277056277,-1.95565656565657,-2.32289105339105,-2.32051154401154,-7.46985930735931,-8.58543578643579,-5.13295021645022,-1.15715584415584,-1.28789898989899,-1.81512049062049,-1.97762770562771,-2.45199494949495,-2.23615007215007,-0.997005050505051,-1.9837683982684,-3.06940404040404,-2.14489466089466,-2.4641075036075,-3.05593650793651,-1.7836443001443,-1.0494329004329,-0.171233766233766,-0.789925685425685,1.70635137085137,1.18301515151515,2.75124531024531,0.587991341991342,-0.853309523809524,-0.116149350649351,-1.54365584415584,-1.58921067821068,1.22078787878788,0.849564213564214,-1.26742496392496,-1.1022316017316,2.68071284271284,2.19874458874459,-2.66189971139971,-3.30462842712843,-1.12026767676768,-1.85965800865801,-1.26341847041847,-7.6099126984127,-1.00354834054834,-1.48923911382735,-1.88626967150497,-1.18894346829641,1.48057066462949,-2.05076699770817,-0.077911382734912,0.248487394957983,-0.482029793735676,-0.02109243697479,-2.04956455309396,-0.161285714285714,0.694872421695951,0.827905271199389,0.137324675324675,0.332996944232238,-1.04782582123759,0.332349885408709,1.0835103132162,-3.887,-1.06774255156608,-0.702437738731856,-1.21620855614973,-1.42449350649351,-2.36985332314744,0.970374331550803,-8.215359052712,-4.92604583651643,-0.44216730328495,0.041414820473644,-1.16665317035905,-0.673873949579832,-2.00571810542399,3.51020168067227,-0.237174178762414,-1.99577158135982,-2.52541482047364,-1.46723300229183,-4.78099770817418,-0.079365928189458,-0.384447669977082,0.291943468296409,0.417280366692131,0.113255156608098,1.77702291825821,1.73237662337662,0.673630252100841,1.59061420932009,0.120269671504965,0.585831932773109,0.042485103132162,1.10009167303285,1.876179526356,1.48825592055004,0.783454545454545,1.21095492742552,1.06206722689076,2.44352635599694,-2.69283193277311,-0.625155844155844,-2.43313292589763,0.300042016806723,-17.9680137509549,-2.1869961802903,0.335473644003056
18,17,co2a0000387,TRUE,0.644255682262594,0.765363114643552,0.628195232400937,-0.673938459278539,-0.598492269839611,-0.679435004180902,0.791132415715019,0.855759592261109,0.853866708805471,-0.53889340056677,-0.430272115383031,-0.592914026327466,0.666869929219502,0.655114232090484,0.769875744666687,-0.75824213419814,-0.779140242702416,-0.7119740450939,0.434501831499868,0.482380596077522,0.575912430022037,-0.554992341297108,-0.461678963229848,-0.677175480159583,-0.599409285729338,-0.44626856756973,-0.621308816775654,-0.225200945458141,-0.397911033759432,-0.299957705684484,-0.755133493684759,-0.667310343281831,-0.670896890027925,-0.444941661876498,-0.378964597888589,-0.618891626680153,-0.621079286065236,-0.499230191172361,-0.613130799763692,-0.273040010838863,-0.315933490035457,-0.609023020403123,-0.561729303861216,-0.565322225899748,-0.740533571171595,-0.090981685169884,-0.366343460663387,0.068767010363628,0.129785984944025,0.22618655373604,0.190448047640367,-18.5789464285714,-5.67934835752483,-7.40386516424753,-21.547513671875,-8.81913442095585,-9.00769715073527,-3.5049499618029,-3.57387471352177,-6.18404851031322,1.72681932773109,-3.38508441558442,-1.20035332314744,-1.21152368220015,-1.22512414056532,-1.27793162719633,-1.75350649350649,-1.09771161191749,0.026150114591291,0.233883498854087,0.258801757066463,0.136182964094729,-0.618853323147441,-0.558058441558442,-0.635633689839572,-7.40386516424752,-2.78265737203973,-2.56089266615737,-3.23261764705882,-2.57766692131398,-3.82979411764706,-2.30032352941176,-4.35789457601222,-1.32345225362872,-2.71317417876241,-2.54738922841864,-2.49240106951872,-2.07707639419404,-3.03396333078686,-1.39194041252865,-2.85885790679908,-5.3750935828877,-4.16441825821238,-4.00267876241406,-3.68386631016043,-2.88969404125286,-3.12113292589763,-1.66927425515661,-1.25926470588235,-1.23823376623377,0.533006111535523,1.47327081741788,0.107244461420932,0.980302139037433,-0.619822765469824,0.747723834988541,-2.61777119938885,-0.247485103132162,-0.615556531703591,0.286427425515661,-2.23777234530176,0.130436210847975,0.663429717341482,0.944299465240642,-3.38679984721161,-2.1937192513369,-2.38446562261268,-1.34732773109244,-3.76941558441559,-9.87671122994652,-1.44374025974026,-6.17017142857143,-7.34107705627706,-9.93720086580087,-10.7938138528139,-6.7914,-1.62161385281385,-2.45003203463204,-3.75390043290043,-5.0744987012987,-6.73512554112554,-7.18119480519481,-2.89610562770563,-3.9580303030303,-4.16652034632035,-5.26923636363636,-7.14278095238095,-7.38939220779221,-2.72045281385281,-17.2828424242424,-3.78911168831169,-5.40131861471861,-4.67891861471861,-4.991529004329,-7.2269393939394,-7.31482164502164,-11.2540805194805,-9.41004242424242,-2.21868484848485,-2.79290909090909,-3.76939826839827,-4.96510303030303,-7.00779047619048,-5.92130043290043,-1.2379974025974,-10.9676415584416,-10.4232173160173,-10.5224493506494,-8.77055930735931,-7.87517835497836,-3.45993506493506,-12.1150735930736,-12.075470995671,-12.1087904761905,-6.27026753246753,-6.23635324675325,-7.52417316017316,-7.13343982683983,-8.04710649350649,-9.02101038961039,-10.8802441558442,-11.146941991342,-9.70924415584416,-9.04171948051948,-12.0775402597403,-12.4379142857143,-8.86515757575758,-5.62542337662338,-9.74375238095238,-8.49829956709957,-9.89864588744589,-9.72231255411256,-16.3669688311688,-15.0834086580087,-11.9915567099567,-7.38742551566081,-7.3634385026738,-10.2557639419404,-4.20803819709702,-7.49551489686784,-0.235186401833461,0.150478991596639,-1.17703132161956,0.043413292589763,-2.74332925897632,-1.0110038197097,0.985009931245226,1.58175248281131,0.858932009167303,1.23269595110772,-0.85742627960275,0.385989304812834,1.02494117647059,-5.67934835752483,-5.0513025210084,-5.05110236822002,-5.43999541634836,-4.72606875477464,-7.04834682964095,-4.58373032849504,-8.92722765469824,-5.67430481283423,-2.4850718105424,-2.1728884644767,-3.34066997708174,-2.63452482811306,-5.11815889992361,0.034997708174179,-2.38519786096257,-11.079858670741,-9.84597097020627,-11.027666921314,-6.27031016042781,-3.31474713521772,-4.89581436210848,-3.21792742551566,-3.22806035141329,-3.05082964094729,0.740047364400306,0.99036974789916,0.001374331550802,0.690283422459893,-0.758867074102368,0.01085103132162,-2.33357754010695,-1.38806646294882,-1.88656378915202,-0.532080213903743,-2.95296485867074,-2.29772421695951,-0.450356760886173,0.760258212375859,-4.67549809014515,-2.35827196333079,-3.0883307868602,-1.89502291825821,-15.9778311688312,-13.7215042016807,-3.3151550802139
19,18,co2a0000388,TRUE,0.813171200547298,0.859543537132514,0.458159727421865,-0.61015525412829,-0.538521991995104,-0.817574386209882,0.599275433437415,0.559297495747484,0.769307836660643,-0.425128854948406,-0.571113607673496,-0.678208564001403,0.55998358781693,0.748905753369818,0.884072967906284,-0.641436403514363,-0.776536436896222,-0.895350193124461,0.438648379117917,0.444034435326111,0.651396777315605,-0.49032356264686,-0.302503034888579,-0.696221642814449,-0.578808611866019,-0.643053479808071,-0.862312969229421,0.050961486342037,-0.211794951731695,-0.221807899664926,-0.586354093066791,-0.611815263553649,-0.723500694479879,-0.322970521586548,-0.503759369399958,-0.761232263234777,-0.315933823272031,-0.650741284489841,-0.661741564715927,0.247113180476876,0.00901759932037,-0.49302671671328,-0.499740906120831,-0.37139767439868,-0.596480465056578,0.342531789041868,0.166934636373326,0.201266342587838,0.696456063348518,0.717864524903827,0.067355367043845,-11.5077693506493,-4.68895238095238,4.15272556390978,-8.85800921875002,-5.80065104166667,0.582765727796061,-1.6152963089542,-1.09495967190704,-3.30572043745728,-0.95098940533151,-1.03556185919344,1.0456971975393,0.445494873547505,1.42035885167464,0.038178058783322,1.70703622693096,-0.374837662337662,1.38638687628161,0.214453861927546,0.931302460697197,-0.275418318523582,1.14657758031442,0.86932023239918,0.388360560492139,4.15272556390977,0.400415584415584,-0.234548188653452,-0.381754955570745,0.12339029391661,-0.790016062884484,-0.565391319207108,-0.901471291866029,-0.601928913192071,-0.219852699931647,-0.807965823650034,0.391988038277512,0.172921394395079,0.505464456596036,-0.066098086124402,-0.154712918660287,-2.33457758031442,-1.32681681476418,-1.98852255639098,0.958656869446343,-0.645504784688995,-1.6185003417635,2.64692891319207,1.22719343814081,1.96014559125085,0.92091011619959,0.689884483937116,2.00597983595352,1.59045249487355,2.39971838687628,0.91146958304853,2.43320539986329,0.993323650034176,2.91734688995215,0.721767259056733,3.34969207108681,2.8118045112782,0.909160970608339,0.749885167464115,0.010506493506494,0.181957621326042,1.19271223513329,0.832544771018455,-5.76905331510595,-3.37505878332194,2.71966267942584,-4.72477350649351,-4.53923532467532,-6.21140363636364,-7.53709038961039,-3.42425506493506,0.235857142857143,0.212997402597403,-1.92715792207792,-0.385698701298701,-2.3441625974026,-1.90402961038961,-0.247869090909091,-0.590425454545454,-0.681960519480519,1.67250025974026,-3.24124467532468,-1.58566545454545,-0.478698181818182,-11.5077693506493,-2.76260987012987,-2.59882909090909,-2.92784571428571,-2.47658701298701,-2.9799625974026,-3.91156935064935,-6.02212207792208,-6.64264727272727,-0.495342857142857,0.562744415584416,-2.43395168831169,-0.90674961038961,-3.6180212987013,-3.78398285714286,-1.04049922077922,-6.60369506493507,-7.13920311688312,-7.91071272727273,-4.50221194805195,-5.04416987012987,-2.1273974025974,-4.79223272727273,-5.4189387012987,-4.72069194805195,-1.54957298701299,-1.55905298701299,-1.62179584415584,-3.2063012987013,-2.71661714285714,-1.91165298701299,-4.83914649350649,-2.29090597402597,-3.6773174025974,-2.34317298701299,-3.92450649350649,-3.86370909090909,-3.08585506493506,-0.909931428571428,-5.03489974025974,-3.98538285714286,-3.67946909090909,-0.699641038961039,-15.1524987012987,-10.6124083116883,-4.7458825974026,-0.919873917748918,-1.66797510822511,-3.01426028138528,-2.27461742424242,-1.29632792207792,0.884284632034632,1.14346212121212,-0.450633658008658,0.991546536796537,-0.842937229437229,0.534484307359307,0.871439393939394,0.988297619047619,-0.582020562770563,1.04371590909091,-1.38689393939394,1.60261958874459,0.696142857142857,-4.68895238095238,0.650417748917749,-0.353209415584416,-0.105107142857143,-0.94348538961039,-0.047449675324676,-1.80210010822511,-2.0077775974026,-2.65269588744589,2.79091937229437,-0.162999458874459,0.049263528138528,0.059429112554113,-0.939818181818182,-1.69515422077922,0.469952922077922,-3.96830627705628,-3.70846807359307,-3.06857251082251,-1.74831818181818,-1.44902976190476,-0.321448051948052,-1.28453300865801,-1.41237391774892,-1.27442424242424,0.22603841991342,1.57192207792208,0.017833333333333,2.04381818181818,1.28630573593074,1.45433982683983,-0.344481060606061,1.07076677489177,-1.7907196969697,-1.13529112554113,-0.333126623376623,0.267511363636364,-1.57335551948052,0.641895021645022,-1.82983279220779,-0.670939393939394,-1.1955303030303,-0.632864718614719,-9.89487662337663,-5.65000432900433,-1.31862662337662
20,19,co2a0000390,TRUE,0.86613639071417,0.78297793242293,0.696760376173512,-0.540546023036542,-0.175862983618273,-0.660309970901468,0.329421947688204,0.225171253842968,0.78813180049048,-0.038226263122441,0.271725385953364,-0.530278486281354,0.008501008479088,0.209856143084177,0.389664594445604,-0.3557738916787,-0.519682239851387,-0.445340812802537,0.254497152146053,0.040583111171033,0.685002279527703,-0.087297967875948,0.205719625355001,-0.53183230903937,-0.308086146755706,0.036295491299302,-0.659962689554089,-0.485205613425389,-0.138470504315143,-0.151186081343685,-0.38798299402875,-0.400921161227625,-0.516053697492206,-0.274675796078771,0.298550938180267,-0.597879147603416,-0.464180753951475,-0.374785900000947,-0.498694536398734,0.197636955154058,0.004009916345329,-0.227851889145328,-0.248750810112723,-0.477585989646506,-0.254877558052794,0.036955577014381,0.377493899642007,-0.213987047341275,0.508021833690683,0.551968697274094,0.57432417803145,-9.83254353054353,-6.31116633366632,4.06757703081231,-9.72799435763885,-8.37115054086536,1.10681985294117,1.95865418894831,1.48987776928953,0.874453781512605,1.7422004074357,1.81433307868602,-0.215305831423478,0.371681436210848,-0.171707410236822,0.761777438248026,0.250836771072065,0.933387827858416,0.194593328240387,0.599268652915712,0.007014260249554,1.20835064935065,-0.016495543672014,1.48783778966132,0.382595365418895,4.06757703081233,1.39927731092437,0.940029284441049,1.61920142602496,1.00701553348612,1.95783244206774,1.02262490450726,2.29026916221034,0.999288770053476,0.385149732620321,0.278996180290298,0.764881334351923,0.601907053730583,0.959555131143366,0.604844410491469,0.08167787114846,2.60814998726763,1.49446778711485,2.0138696205755,0.228146422205246,0.583524064171123,1.03519429590018,-0.222148714031067,-0.395440030557678,-0.774370002546473,0.773867838044309,1.05425872167049,0.309931499872676,1.46123096511332,0.229426788897377,1.97772421695951,-0.337139546727782,2.1320965113318,0.489644766997708,0.943375859434683,0.256265851795264,1.33264069264069,0.53859281894576,0.37751285968933,-0.403507766743061,0.943615482556659,-0.460718105423988,1.48432976827094,4.14765571683219,3.62498905016552,-0.150406671759613,-2.60979172679173,-2.25217797017797,-1.32646368446368,-2.14255026455026,-2.16801587301587,-0.898515632515632,0.50187974987975,-1.54810004810005,0.301494468494468,-2.37641943241943,-0.405454545454545,0.277810004810005,1.09328667628668,-0.538329966329966,1.12553198653199,-1.67827032227032,0.402967291967292,1.07112602212602,-9.83254353054353,-2.4407898027898,-2.14394083694084,-3.532,-1.75470658970659,-2.98739105339105,-2.38882395382395,-4.54851996151996,-3.63712554112554,-2.01177537277537,-0.958102453102453,-2.05563780663781,-0.689675805675806,-3.05825685425685,-1.79416738816739,-1.42931457431457,-3.72797691197691,-3.45197883597884,-3.73462385762386,-3.2002809042809,-2.65220442520443,-2.34879220779221,-2.6738658008658,-3.07030303030303,-3.25417508417508,0.677091871091871,1.36679076479077,0.121679172679173,1.23003511303511,-0.533030303030303,0.45177392977393,-2.14836748436748,-1.23120731120731,-0.246319384319384,0.050256854256854,-1.59219769119769,-2.05066859066859,-0.175809523809524,1.06740885040885,-3.16807551707552,-1.87973737373737,-3.10077056277056,-0.844518037518037,-5.73827176527176,-7.33293217893218,-2.65626695526695,-1.28883066933067,-1.00608241758242,-0.565427572427572,-1.17631418581419,-0.930894105894106,-0.264427572427572,-0.389697802197802,-0.912727272727273,-0.932952547452547,-2.553495004995,-2.07759190809191,0.089229270729271,-0.665668331668332,-0.616975024975025,-0.725735264735265,-3.82533116883117,-1.65196703296703,0.047416583416584,-6.31116633366633,-1.11031618381618,-0.593400599400599,-1.43272727272727,-0.972691808191808,-2.37726773226773,-1.95166433566434,-4.36928571428571,-2.09763586413586,-0.605166833166833,-0.519136363636364,-1.0235994005994,-0.855722777222777,-2.70262337662338,-2.44163286713287,-0.674795204795205,-2.50803646353646,-2.01750749250749,-1.90912587412587,-4.06209240759241,-3.89553246753247,-1.01737812187812,-4.69677022977023,-4.75103746253746,-5.39034015984016,-0.279375624375624,-0.608014985014985,-0.506311188811189,-0.71861988011988,-1.72628421578422,-1.19421578421578,-3.57168331668332,-2.77925424575425,-1.87985114885115,-1.92214185814186,-3.05332617382617,-3.41107792207792,-2.15344505494506,-0.719560439560439,-4.50084315684316,-4.03752097902098,-4.54227372627373,-3.22269130869131,-4.09852547452547,-7.21047452547453,-4.68818531468531
21,20,co2a0000392,TRUE,0.59595683176007,0.356206557157992,0.12280697518692,-0.451019736634529,-0.693120518120481,-0.790121033999232,0.617472878911147,0.741894942876065,0.96635773055533,-0.302883796917023,-0.448355033066155,-0.75038490168716,0.746413935113707,0.877870144735,0.775344446710719,-0.6957996845009,-0.836366281994499,-0.962226396398416,0.593877307416845,0.789858048809056,0.732389449937262,-0.050140635700118,-0.170281313911038,-0.233568103154677,-0.28742316151091,-0.553844822718201,-0.764311559226203,-0.33402054158449,-0.147836911813891,0.635939944901429,-0.562698929187604,-0.709015871739362,-0.942175837953773,-0.189998078659254,-0.57030239117287,-0.663540222937436,-0.221395069879117,-0.598568052775413,-0.706671835117581,-0.226550308184868,-0.300908022616405,-0.650013687017922,-0.319948510735884,-0.709637652306645,-0.695325202418205,0.132414945766582,0.069840652423022,0.752676368907217,0.139509307813774,0.216047041178346,0.595595008826873,-11.0179726345084,-6.14098001998002,10.6013608534323,-8.0870731026785,-5.59253725961537,7.65198214285715,-3.30068552875696,-4.12155287569573,-6.59794836116265,-5.88345299938157,-4.42099536178108,0.088317563388992,0.173203463203463,0.702218614718615,0.644768707482993,1.09988497217069,1.29283797155226,1.78663790970934,1.77712677798392,1.68074273345702,0.649815398886827,2.33847711811998,2.57222108843537,1.97019480519481,10.6013608534323,-2.98890754483612,-2.86019944341373,-3.06883580705009,-2.60890723562152,-3.13186425479283,-2.9577316017316,-3.07695083487941,-1.91439764996908,-1.23011657390229,-1.16975324675325,-0.717807668521954,-0.32360915275201,-0.533304576376005,-0.556622448979592,-1.44344959802103,-7.87807606679035,-7.62252102659246,-7.72390043290043,1.15223500309215,0.399776747062461,-2.84792115027829,5.32840105132962,5.22833147804576,5.60510760667903,3.23026530612245,2.48508781694496,3.25495794681509,3.25499505256648,3.14202782931354,2.92210853432282,4.18949876314162,4.11716295609153,5.25659245516388,5.07537476808905,6.1057074829932,5.24066110080396,4.44419604205319,3.26744124922696,3.41066264687693,2.05821521335807,3.9826645021645,3.10847124304267,-21.2012405689549,4.1440061842919,5.31675974025974,-1.8542680890538,-1.58366326530612,-3.54988358070501,-3.19306771799629,-1.83705148423006,-1.12664935064935,-0.375100185528757,-0.705107142857143,-0.515817717996289,-1.65437012987013,-1.79020686456401,-0.302743042671614,-0.395606679035251,-0.48655426716141,-0.032466141001856,-1.65242996289425,-2.08246614100186,-0.268204081632653,-11.0179726345084,-1.22948979591837,-0.772299628942486,-1.25761131725417,-0.763776437847866,-2.03714935064935,-1.31111781076067,-3.60419712430427,-3.73153571428571,-0.703832560296846,-0.452047773654917,-1.14469712430427,-0.585647495361781,-1.98337291280148,-1.30705797773655,-0.334115027829314,-3.55359461966605,-3.92571660482375,-3.60286920222634,-3.11248423005566,-3.26583163265306,-0.855381261595547,-4.54658256029685,-7.26781354359926,-7.31376391465677,-1.09829730983302,-1.86759276437848,-1.22087476808905,-1.1541827458256,-2.64778246753247,-2.61183487940631,-3.62574536178108,-4.32485714285714,-2.75155194805195,-3.03910482374768,-4.27367578849722,-3.97719990723562,-1.25440816326531,-1.27041141001855,-2.90521614100186,-3.36515352504638,-2.93012755102041,-4.00255287569573,-6.96390584415584,-7.49251345083488,-4.58287847866419,0.303093406593407,-0.171476523476523,-0.685143856143856,-2.03281818181818,-0.0902002997003,0.780966033966034,-0.803598901098901,0.485988011988012,-1.18395704295704,-0.269133866133866,-1.67898201798202,0.306126373626374,-0.305199300699301,-0.078067432567433,-2.4281028971029,-0.005485514485515,-1.63817982017982,0.127791208791209,-6.14098001998002,0.527681818181818,-0.34153946053946,0.618298201798202,-0.478733766233766,0.539833166833167,-1.04328021978022,-1.4407032967033,-1.89188711288711,0.500145854145854,-0.372057442557442,0.36710989010989,-1.27079220779221,-0.118282717282717,-1.61124425574426,-0.076456043956044,-0.91257992007992,-1.43572377622378,-1.04521328671329,-1.6145959040959,-2.50760889110889,-0.045842157842158,-2.90217832167832,-4.77076623376623,-3.59012287712288,-0.093628371628372,-0.847305694305695,-0.289463536463536,-1.27092007992008,0.271943056943057,-1.2932047952048,-1.50749050949051,-2.91154645354645,1.00796353646354,0.860649350649351,-1.02734815184815,-3.19261238761239,-1.59049050949051,-0.219829170829171,-0.990999500499501,-2.66786663336663,-0.663647852147852,-2.73961088911089,-5.54122677322677,-5.34906093906094,-2.93165534465535
22,21,co2a0000394,TRUE,0.733270271725905,0.654639555305156,0.630983229725675,-0.474060676067201,-0.580887561955314,-0.697495854775105,0.668730537006353,0.698325388152284,0.861127902888594,0.269711142132892,-0.192922544146105,-0.580511569680194,0.694606930405704,0.848102649056754,0.785100337574453,-0.633679775318593,-0.487092829155239,-0.707937716491705,0.740630334273956,0.579410166326687,0.561457653695618,0.09894374893932,-0.415067308974903,-0.576305464766494,-0.007518139750609,-0.338251658055375,-0.679242121431788,-0.00298185114962,-0.202598497412747,-0.336992456150526,-0.66954561250005,-0.491235965097611,-0.691329931803007,-0.135177533632627,-0.486210467916246,-0.666083940949855,-0.319747065240872,-0.496509005005617,-0.774686000727608,0.069410053036043,-0.456527191038658,-0.396739850463394,-0.204060732209671,-0.541406577333001,-0.539680784721479,-0.240062491776447,-0.052359733575045,0.085510201843429,0.44157308748507,0.430580026361772,0.523999753631129,-15.4286813186814,-12.1691294372294,2.16163801652892,-9.42885937500001,-8.27719596354167,1.26569367897728,0.762279811097993,0.6606639905549,0.871751593860685,1.37688689492326,0.59360401416765,0.080017945690673,0.166483589138135,0.479125383707202,0.342723022432113,0.430114757969303,0.306640141676505,0.303249114521842,0.288739079102715,0.254902007083825,0.413374734356552,-0.057789846517119,0.217708146399055,0.152541204250295,2.16163801652893,0.431396458087367,0.410167178276269,0.705340731995277,0.760351829988194,1.19996340023613,0.931773317591499,0.828596930342385,0.718699409681228,0.092493978748524,-0.031699173553719,0.394308618654073,0.409245808736718,0.3417360094451,0.124777804014168,-0.508348760330579,0.809645100354191,1.0273546635183,0.833065407319953,0.510215348288076,-0.045469657615112,-0.105779693034239,-2.79891711924439,-3.12977426210153,-3.03421275088548,-0.363574025974026,0.028083116883117,-0.740420779220779,0.1030639905549,-1.13417615112161,0.003588902007084,-1.83932561983471,-0.695367650531287,-1.5994186540732,-1.31730035419126,-2.61348665879575,-2.40485997638725,-1.66521723730815,-0.26270318772137,0.102415112160567,-0.083879574970484,-0.348079574970484,0.03973813459268,3.85925147579693,1.1519279811098,-2.74431900826446,-4.8633012987013,-4.50459220779221,-6.95620311688312,-7.36409454545455,-4.40065350649351,-1.93142857142857,0.18406025974026,-4.74799272727273,-0.964205194805195,-7.3563838961039,-4.00204467532468,-1.10628051948052,0.068281558441559,-3.44826337662338,-1.61323064935065,-6.59331896103896,-4.95256675324675,1.25664415584416,-15.607161038961,-3.06051272727273,-2.92655688311688,-3.85026701298701,-3.56599584415584,-5.10937298701299,-5.39882077922078,-8.56259116883117,-7.86143532467532,-3.17918337662338,-0.911795844155844,-4.50244779220779,-2.0682238961039,-7.13264987012987,-5.01273558441558,-0.880761558441558,-6.82622701298701,-6.76018077922078,-6.4642587012987,-8.79862181818182,-7.4809438961039,-2.38652883116883,-9.35197142857143,-10.5491215584416,-8.18463324675325,-2.53781142857143,-1.97587896103896,-4.24463012987013,-3.10908935064935,-6.71742441558442,-5.44951688311688,-9.8769361038961,-10.1147849350649,-5.58952727272727,-5.56720103896104,-9.64339584415584,-10.7857215584416,-4.54428467532468,-1.35964103896104,-8.97888415584416,-7.50635636363636,-9.21104051948052,-8.19097402597403,-14.1542046753247,-13.9231714285714,-9.35148311688312,-2.28995757575758,-2.64202380952381,-4.36929567099567,-5.47609264069264,-2.14863982683983,-0.100237229437229,-1.42142813852814,-1.40752077922078,-3.49810692640693,-4.31004978354978,-4.58031688311688,-0.445634632034632,-1.0071038961039,-1.65748095238095,-2.7165670995671,-4.82333506493507,-4.84121774891775,-0.842910822510822,-12.1691294372294,-0.641919047619048,-1.58095714285714,-1.44214632034632,-3.22872510822511,-2.57355974025974,-4.68175974025974,-6.04843593073593,-6.68759004329004,-0.518061038961039,-1.37669653679654,-1.58786147186147,-3.4461012987013,-3.99025844155844,-5.21095930735931,-0.540523809523809,-3.73515194805195,-4.30715021645022,-3.65133852813853,-7.19929134199134,-7.03174805194805,-0.899248917748918,-10.1476177489178,-10.9190891774892,-10.0537761904762,-2.42988614718615,-2.60955757575758,-3.47081774891775,-3.09360822510823,-6.13948311688312,-4.6986632034632,-9.38702510822511,-8.7465961038961,-5.67174848484849,-5.99409090909091,-9.90122770562771,-9.9821670995671,-5.4023,-2.19323376623377,-7.99202727272727,-6.82567965367965,-8.60905584415585,-7.1392961038961,-10.7582367965368,-11.0177077922078,-10.1302948051948
23,22,co2a0000395,TRUE,0.542638171394277,0.611898246224822,0.450978863267317,-0.637559695258291,0.100713111999591,-0.725543934575327,0.347312331851968,-0.111606923942178,0.489686875868789,-0.556342031268824,0.078263476602647,-0.661235407057683,0.354922564788993,-0.318112344589583,0.363192032595419,-0.665416517622784,-0.016561665141744,-0.600741716460096,0.430850671628501,-0.071115796890149,-0.017170070427216,-0.319374146603601,-0.024948130879515,-0.640498720159374,-0.720218070335319,0.220291480315826,-0.773301798834375,-0.323930132969215,0.153309788286419,-0.505948425903114,-0.571959332885665,-0.380332050201029,-0.412933919472938,-0.637296352083724,-0.553370521983608,-0.755941435764098,-0.33013072789731,-0.417306197651892,-0.391573449685423,-0.307900446392353,-0.285450339324083,-0.38962478027631,-0.615216378054949,-0.157725077732643,-0.442694572206141,0.212565194841171,-0.135521067659254,-0.238796403685659,0.305736230903172,0.360639612049854,0.094821914799199,-8.98846536796536,-5.65906076066789,4.51206437041219,-5.38147233072917,-4.39917578125002,3.05431691576085,1.64156775832863,0.727182100508187,5.64047713156409,1.67036363636364,1.12561151891587,1.23701129305477,0.416832015810277,2.06224195369847,1.63104517221909,2.3147371541502,3.16460728402033,3.01999717673631,2.93918633540373,3.41640824392998,3.24519621682665,2.72053190287973,3.42965415019763,2.73926482213439,4.5120643704122,0.755946922642575,-0.081590344438171,1.31232693393563,1.20985319028797,1.55280067758329,0.452463297571993,3.23068266516093,2.38483032185206,0.257097402597403,-0.529240542066629,1.23505561829475,1.14461208356861,1.73725381140599,2.02344127611519,-0.819885093167702,2.94059486166008,1.4062656691135,2.51968887634105,1.35348447204969,3.72706098249577,0.148707509881423,3.73672755505364,4.0986259175607,3.80475974025974,4.5406829474873,3.14777188029362,4.68698334274421,4.28582834556748,4.077018351214,4.18982495765104,2.94103246753247,2.62833145115754,5.39669565217391,6.13759062676454,3.97339440993789,4.8443023715415,4.84205590062112,5.00147007340486,1.3079824957651,0.107557029926595,1.66999858836815,3.45626002258611,3.20710220214568,3.42577526821005,3.73912027103331,-5.15421374458875,-6.29190043290043,-8.05007359307359,-7.27065746753247,-5.96995238095238,1.7418354978355,-0.942032467532468,2.56216991341991,-0.756432359307359,0.878575216450217,-2.82456818181818,4.1702132034632,2.50036904761905,4.69952543290043,1.22299945887446,4.23148376623377,-0.868314393939394,3.8332619047619,-8.98846536796537,-3.67358928571429,-5.14439556277056,-2.77085119047619,-6.34200595238095,-2.82782088744589,-6.13363095238095,-4.23867424242424,-8.58287121212121,-1.30271915584416,-1.5480487012987,-0.38711038961039,-4.19218398268398,-0.78109632034632,-4.01216991341991,-3.54608062770563,-6.44737067099567,-8.33395021645022,-7.45305303030303,0.116506493506494,-8.94498647186147,-4.50809253246753,-1.28851082251082,-2.83520995670996,-2.48868506493507,4.64322348484849,2.43433170995671,5.31829112554113,1.96495183982684,2.58125108225108,-0.440406385281386,0.085705086580087,-2.2849788961039,2.61345779220779,-0.900044372294372,-0.375247835497835,-2.50441612554113,1.92095833333333,4.31666612554113,-2.13998430735931,-4.36759686147186,0.083670995670996,-4.87297077922078,-8.77032575757576,-5.81988095238095,-1.31552056277056,-0.909462430426716,-1.6524693877551,-2.05932792207792,-5.49003525046382,-1.26902922077922,2.00169990723562,0.800025510204082,2.9549025974026,0.593116419294991,2.16743692022263,-0.384296846011131,4.3264025974026,3.08108998144712,4.80160435992579,3.05390677179963,2.89013821892393,1.07936038961039,3.45823237476809,-5.6590607606679,-0.533419294990724,-2.41297773654916,0.252580705009276,-2.45588033395176,1.20143599257885,-1.81165398886827,-4.52432096474954,-2.06810667903525,0.041373840445269,-1.03462755102041,1.3646525974026,-0.866667903525046,1.02912105751391,-0.944170686456401,-1.65764424860853,-2.44531679035251,-3.03355148423006,-2.9699387755102,-2.26444202226345,-0.467497217068646,-1.20938450834879,0.084305658627087,-1.16954730983302,-1.85434508348794,5.88895593692022,3.50456771799629,4.65275974025974,2.81919619666048,3.61946428571429,1.89588729128015,-0.776082560296846,0.914220315398887,3.61343460111317,-1.30596846011132,2.17901901669759,0.623317717996289,2.39612012987013,4.74835250463822,0.032620593692022,0.404807050092764,-0.265753710575139,-1.16723562152134,-5.25484461966605,-3.79052040816327,0.054946660482375
24,23,co2a0000396,TRUE,0.832115021556619,0.808058254877702,0.878013533469898,-0.398151681739464,-0.356170666886085,0.335776220166837,0.156153133774365,0.214512794366668,0.641005242564564,-0.253681965966865,-0.29384153879861,-0.601940679492202,0.587277373707392,0.502140935704576,0.650178726890715,0.412408479707995,0.609070889490282,0.685970690460088,0.600474979874709,0.420543837656787,0.530276674773563,0.3228887717695,0.465555311969154,0.364917888640854,0.324775283006009,0.459005045883057,0.351881924245037,-0.571684772226586,-0.619496058607642,-0.601216935035708,0.189758632923966,0.507602890260503,0.549666968970384,0.278814647953878,0.296708640592086,0.259999354335232,0.049480493958075,0.130077981112192,-0.352144621183118,-0.109551340300258,0.251827183968591,0.203193238457679,-0.325368893808642,-0.151983099367569,0.132982772456403,0.564154181065874,0.77563167887028,0.556288387208406,0.391232017341037,0.767461590571372,0.759599306353114,-12.6445565862709,-14.3865071119357,-1.6306765615337,-7.94823911830355,-11.7188962053571,1.87410742187501,-4.18545578231293,-3.98636147186147,-5.19750463821892,-5.49963976499691,-4.27842455163884,-4.22086951144094,-4.20059492888064,0.175786641929499,-1.20873964131107,-0.185204081632653,-2.56231447124304,1.33770439084725,0.862189548546691,-4.35461533704391,-4.31371459492888,-0.034860235003092,-0.915524118738404,-3.97278726035869,-1.6306765615337,-3.27068058132344,-2.5980120593692,-3.00211750154607,-3.17338466295609,-3.27280364873222,-3.497695423624,-3.74014935064935,-3.96483487940631,-1.69085466914038,-2.24233333333333,-1.21915058750773,-2.59531014223871,-1.45720624613482,-2.59189332096475,-4.11744712430427,-5.60020995670996,-5.95483580705009,-5.21523871366728,-2.77724613481756,-3.30999690785405,-3.24221645021645,-5.12641620284477,-0.182444341372913,-4.06683858998145,-4.00370779220779,-4.03931972789116,6.37090383426098,-0.030316326530613,-4.28126004947434,-4.2548719851577,-1.66488868274583,-2.08091311069882,-0.422704081632653,-2.98057142857143,-4.15519913419913,-4.14459956709957,-4.09489424860853,0.997261904761904,-1.29580395794682,-3.4509879406308,-1.3822192331478,-3.33294341372913,-7.22725448361163,-3.92658750773036,-3.95661440940012,-2.7007987012987,-2.13421057513915,-3.54023376623377,-2.69291651205937,-2.66121706864564,-2.78515398886827,-2.74678014842301,-4.05021150278293,0.190359925788497,-4.54767717996289,-1.71910482374768,-1.28674582560297,0.163665120593692,-2.83666512059369,-2.8252745825603,-3.88517903525046,-3.70230890538033,-2.63485528756957,-12.6445565862709,-2.33182374768089,-0.468448979591837,-2.97916419294991,-0.431286641929499,-3.81523098330241,-1.79571243042672,-5.30506864564007,-4.03363079777365,-2.59920779220779,0.505130797773655,-4.37492857142857,0.175781076066791,-4.66530241187384,-1.61448608534323,-2.72585157699443,-3.34733209647495,-2.45107606679035,-2.90831168831169,-6.35886549165121,-4.37199907235622,-1.52569016697588,-10.711586270872,-9.36387847866419,-2.67749165120594,-2.64957513914657,-2.67020964749536,-6.37524768089054,-3.38917717996289,-2.8025120593692,-2.80651391465677,-6.3673905380334,-7.34119480519481,-4.07677551020408,-4.45470037105751,-2.75367439703154,-2.73850278293135,-2.72195918367347,-1.88036549165121,-6.79198608534323,-4.97916975881262,-6.46568738404453,-6.24747309833024,-5.44486920222635,-2.5986094619666,-2.62884508348794,-4.51704700061843,-4.18144712430427,-4.63904452690167,-4.64771985157699,-4.37229189857761,-4.30649165120594,-4.29389919604205,-1.39391898577613,-2.49730859616574,-3.23350340136054,-4.31747124304267,0.245892393320965,-0.021551020408163,-4.41877860235003,-4.39401484230056,-3.03678478664193,-4.08169696969697,-4.07447742733457,-14.3865071119357,-3.81332220160792,-4.2516400742115,-3.9675912183055,-4.19513481756339,-4.59372789115646,-4.61257081014224,-5.52448979591837,-6.08589919604205,-2.141097711812,-2.64330179344465,-1.9479084724799,-3.71371428571428,-3.94165429808287,-4.36986951144094,-4.21490970933828,-4.3844817563389,-4.06109029066172,-4.10295918367347,-5.73908039579468,-6.43312492269635,-3.66909400123686,-9.0630550401979,-7.29713172541744,-4.15792764378479,-4.08916264687693,-4.11611997526283,-1.37145207173779,-2.80308286951144,-4.37580705009277,-4.33378726035869,-5.85949783549784,-7.28440754483612,-4.53150463821892,-5.04637600494743,-4.25956153370439,-4.22606617192332,-4.17991774891775,-0.877228200371058,-5.73362956091528,-7.03363698206555,-5.7643351886209,-6.96784353741497,-7.11494063079777,-4.01719975262832,-4.04623871366729
25,24,co2a0000398,TRUE,0.776777901459815,0.640475404598274,0.678982350297629,-0.694024736027628,-0.683554155063416,-0.845632709473426,0.788493040611487,0.786750978654027,0.786148762191083,-0.613380984569285,-0.581132103270323,-0.723570810561857,0.744953281024686,0.68893054392375,0.791899434916652,-0.805325693112663,-0.862565845891002,-0.865766101800068,0.507149788521417,0.429164231346862,0.465933047608084,-0.73443346658759,-0.695046442732124,-0.795139477859084,-0.65321118769643,-0.639689097368966,-0.812133405156728,-0.328224101892158,-0.372697317923964,-0.20152197790466,-0.703744238496598,-0.793075680649172,-0.642279484876725,-0.47650774319553,-0.541934072278169,-0.511306537625849,-0.534812446968674,-0.583281378539931,-0.345058543424152,-0.44167050557828,-0.601840003375011,-0.40403606847368,-0.503365841288072,-0.777119139194353,-0.596216704023345,-0.292837679799155,-0.072518609453726,-0.073050003353756,0.744194775331856,0.242917136881161,0.55823140792715,-13.1797787878788,-4.62493864755934,0.893493506493498,-7.47515507812501,-2.43664655172415,2.62901372466217,-1.69409898209898,-1.3938782028782,-2.89330782730783,-2.2801762021762,-1.54751702351702,0.274462267462267,0.864227097227097,0.240590382590383,1.45853667953668,-0.375730431730432,0.649785187785188,1.52930572130572,2.02938083538084,1.40666163566164,1.76786977886978,0.548197613197613,0.808991575991576,1.50603825903826,0.893493506493507,-1.12720042120042,-0.645565461565462,-1.363053001053,-0.767691470691471,-1.62166233766234,-0.763385047385047,-2.65144647244647,-0.727121446121446,-0.574349596349596,-0.15230186030186,-0.845888732888733,0.184017901017901,-1.21769603369603,0.044191997191997,-0.657555984555985,-2.92139101439101,-2.77166303966304,-2.545106002106,-1.75869568269568,-0.761398385398385,-0.962913653913654,1.1604727974728,-0.616560898560898,1.86862618462618,2.81132292032292,2.94293506493507,2.17336258336258,1.53871884871885,1.86810565110565,-0.456644085644085,0.50242786942787,-0.556810810810811,2.58572270972271,0.299051246051246,1.90532607932608,-1.35184977184977,2.79630501930502,3.76953948753949,-1.00048332748333,-0.498639873639873,-0.562356616356616,-0.635810108810109,-5.73148122148122,-1.86635837135837,1.16062162162162,-6.31787792207792,-6.18946493506494,-10.1732380952381,-10.8725173160173,-6.15617229437229,-0.655884415584416,-1.25202554112554,-1.87433766233766,-3.20163333333333,-4.5778658008658,-5.47382077922078,-0.600206060606061,-1.08791212121212,-2.27076277056277,-4.07518917748918,-4.35757012987013,-6.0368658008658,-0.038504761904762,-13.1797787878788,-2.98329913419913,-3.21757792207792,-3.50030606060606,-3.87033203463204,-5.4839316017316,-5.92373939393939,-9.18508874458875,-8.96384675324675,-1.07599956709957,-1.66510822510823,-2.26815021645022,-3.15821168831169,-4.88631255411256,-5.54782597402597,-0.578481385281385,-10.6231593073593,-10.8096025974026,-10.2263536796537,-7.36402943722944,-8.14514891774892,-3.2750303030303,-5.83235844155844,-7.57502380952381,-6.23444242424242,-2.05057489177489,-2.70647229437229,-2.9766961038961,-5.49456493506494,-4.72818095238095,-8.04958614718615,-6.53557489177489,-9.26819350649351,-5.39299826839827,-7.31524502164502,-6.91809177489177,-9.56258311688312,-4.6724961038961,-1.00454242424242,-6.84645108225108,-7.91400303030303,-6.43576017316017,-7.51365021645022,-16.1862943722944,-11.9091082251082,-5.87140909090909,-2.44791670398567,-1.90170219435737,-4.72529690998657,-4.59993461710703,-2.00647245857591,-0.355782803403493,0.651264666368115,-0.591880429914913,0.410251231527094,-1.63470891177788,-1.44585042543663,0.412715629198388,0.73048275862069,-0.102975369458128,-0.829999552171966,-1.07860546350202,-2.39267129422302,0.755812360053739,-4.62493864755934,-0.781726824899239,-0.682079713390058,-0.665783699059561,-0.300003134796238,-1.84775055978504,-1.24660680698612,-4.45577519032691,-3.28171742051052,-0.534070756829377,0.215240035826243,-0.616091356918943,0.218973578145992,-2.07528571428571,-1.31283922973578,-0.381268696820421,-4.92198925212718,-4.95229690998657,-4.50291401701747,-3.4071262875056,-3.13867666815943,-0.900556202418271,-3.03424630541872,-6.34088446036722,-4.39338244514107,-0.018913121361397,-0.77041289744738,-0.605086878638603,-2.62726332288401,-1.02996238244514,-5.41475503806538,-2.34494491715181,-6.62240214957456,-2.59513524406628,-4.69675190326915,-2.08416793551276,-7.57152485445589,-2.47080026869682,0.693484102104792,-3.08163905060457,-3.28028213166144,-2.26122973578146,-4.64581236005374,-8.11895297805643,-6.39491939095387,-3.07973130317958
26,25,co2a0000400,TRUE,0.273319131861828,0.288264140192324,0.09254091076111,-0.667999435934761,-0.348871596763872,-0.548608862714109,0.679596108822399,0.758614730361414,0.440317402641676,-0.741776868544357,-0.336758433624277,-0.597401045585278,0.832274797909584,0.314788764628764,0.424998033790394,-0.810879377793416,-0.754810924171641,-0.723231356250113,0.167851971210361,0.072082142360708,0.526038973009927,-0.823591815990224,-0.369531033206874,-0.512563701784216,-0.750179523635286,-0.356381097820791,-0.548363944478488,-0.30476028672986,-0.307904421856086,-0.023193924043262,-0.587995024650849,-0.68174877666731,-0.779016139965659,-0.734664061617799,-0.550378630173108,-0.557091388061023,-0.516938118758381,-0.249642550834941,-0.637476040616176,-0.613201299500989,-0.363329183752606,-0.560319638214892,-0.665574584507835,-0.329930380132534,-0.614232712938214,-0.245007643184033,-0.076209901413259,0.375431356222378,-0.189129567521682,0.060949929486412,-0.166606762862824,-12.3256318464145,-3.28791168831168,0.619206818181814,-11.6018141983695,-4.41733932291667,-1.16318046875,-6.67206201298701,-7.24557305194805,-6.34266233766234,-7.00380584415584,-7.57272012987013,0.659174025974026,0.193482142857143,0.260678571428571,-0.200306168831169,-0.287441233766234,-1.03416331168831,4.13705097402597,2.37353831168831,3.20548603896104,2.38445616883117,2.09425909090909,1.47485876623377,3.48925974025974,0.619206818181818,-5.37466071428572,-5.57239415584416,-4.60093993506494,-4.95036558441558,-4.03166720779221,-5.45879383116883,-4.12533279220779,-3.88108246753247,-2.64871006493506,-2.86620454545455,-2.12199902597403,-2.69026915584416,-1.82079837662338,-3.07977532467532,-3.78109772727273,-7.90611428571429,-8.12409448051948,-8.71954707792208,-2.22768409090909,-1.37860876623377,-6.04038051948052,4.83299545454546,3.60108279220779,4.26431980519481,8.01110032467532,5.67620032467532,7.57240097402597,5.6155262987013,5.66687402597403,4.74720227272727,2.19027532467532,2.87101850649351,7.61176006493506,5.19301720779221,4.00202402597403,3.55774123376623,6.37086980519481,6.24499350649351,-0.961487012987013,-1.64488603896104,0.808648376623377,0.998369155844156,-8.92536948051948,-2.24561331168831,4.93317207792208,-12.2803630717109,-12.8625437605872,-14.3418616600791,-15.8833546019198,-12.3754511575381,-0.642378317334839,-1.90550649350649,-2.31838226990401,-4.32298475437606,-5.08502710333145,-7.14290005646527,1.84535798983625,-0.661792772444946,-0.189296442687747,-2.99258385093168,-3.65549463579898,-5.66210333145116,1.39265386787126,-12.3256318464145,-8.78911914172784,-8.92295652173913,-8.98911236589497,-9.78407848673066,-10.0290118577075,-11.6573083003953,-11.8310880858272,-14.1334353472614,-4.49778994918125,-4.8691948051948,-5.13156352343309,-6.75172953133823,-8.13461095426313,-9.33795143986449,-4.39688198757764,-15.5189909655562,-15.9075200451722,-15.4021919819311,-9.85875324675325,-9.77532693393563,-8.58531846414455,-6.44660926030491,-7.04629249011858,-5.83464652738566,3.33015697346132,0.578229249011858,3.1518170525127,-0.689162619988707,-1.65045002823264,-4.19835798983625,-6.71546640316206,-8.67286053077357,0.39789384528515,-2.10726482213439,-5.81960417843027,-7.38428006775833,-1.22189779785432,1.58615415019763,-8.17824562394128,-8.98989497459063,-7.08596725014116,-8.38663975155279,-22.5080965556183,-13.3479011857708,-6.3154889892716,-12.1824008658009,-12.290225974026,-11.7673151515152,-12.680341991342,-12.6110051948052,-1.01510735930736,-1.03183636363636,-2.53902857142857,-2.48972554112554,-3.71539913419913,-3.25138181818182,2.69219826839827,0.645484848484849,1.42905627705628,0.096671861471862,-0.780912554112554,-1.39743896103896,1.72701471861472,-3.28791168831169,-9.54021125541125,-9.03638095238095,-8.65800432900433,-8.87668051948052,-8.98205800865801,-10.3388632034632,-9.40507705627706,-11.9469861471861,-5.79791255411255,-5.01038961038961,-5.43912121212121,-5.35106926406927,-6.73085021645022,-6.7672683982684,-6.06320606060606,-13.5065151515152,-13.9857341991342,-13.8821333333333,-7.62297575757576,-8.99518268398269,-9.90467445887446,-0.41083722943723,-1.24926233766234,-2.36522597402597,5.8099619047619,2.80989523809524,6.53385714285714,2.6470354978355,4.49077316017316,1.67151688311688,-0.938590476190476,-1.12805367965368,4.7606051948052,1.91650476190476,0.582883982683983,-1.15809696969697,2.04156796536797,3.44946493506494,-5.07240865800866,-4.57516623376623,-3.68420606060606,2.74162077922078,-15.0895818181818,-9.02773333333333,-0.225455411255411
